  INPUT PROFILE
  219.100 249.820 255.990 257.540 251.720 243.480 235.020 229.330 226.620 223.050
  218.620 215.080 212.130 207.950 202.510 194.340 193.150 198.050 205.490 212.480
  219.840 226.740 233.390 240.020 246.660 253.050 258.760 263.400 267.210 271.020
  275.130 278.310 281.060 283.330 285.480 287.820 290.440 292.760 294.820 296.760
  299.190 300.970 301.640
   -5.810  -5.810  -5.810  -5.810  -5.810  -5.810  -5.810  -5.810  -5.810  -5.810
   -5.810  -5.810  -5.810  -5.810  -5.810  -5.810  -5.810  -5.810  -5.810  -5.810
   -5.810  -5.810  -4.070  -1.410  -0.980  -0.960  -1.140  -0.150   0.820   1.070
    0.980   1.640   1.940   2.080   2.280   2.410   2.470   2.540   2.640   2.810
    2.870   2.900   2.910
    1.000   1.257   1.780   2.886   3.287   3.244   3.158   2.985   2.816   2.053
    1.485   1.340   1.273   1.044   0.899   0.740   0.555   0.360   0.267   0.160
    0.082   0.049   0.045   0.045   0.045   0.045   0.045   0.041   0.038   0.036
    0.035   0.034   0.033   0.032   0.031   0.029   0.027   0.026   0.025   0.026
    0.029   0.032   0.032
   -0.100   0.000   0.000   0.000   0.000   0.000   0.000   0.000   0.000   0.000
    0.000   0.000   0.000   0.000   0.000   0.000   0.000   0.000   0.000   0.000
    0.000   0.000   0.000   0.000   0.000   0.000   0.000   0.000   0.000   0.000
    0.000   0.000   0.000   0.000   0.000   0.000   0.000   0.000   0.000   0.000
    0.000   0.000   0.000
  301.640   2.9101007.300   5.000   2.000
  301.640   3.000   5.000  15.000   0.100   0.300
  500.000   0.000
  
  NUMBER OF PROFILES PROCESSED= 1
  
 CHANNELS PROCESSED:
        1       2       3
  
 INPUT SURFACE EMISSIVITIES SAT = 11
    0.000   0.000   0.000
  
  -----------------
  Profile number  1 Instrument  5
  -----------------
  
 CALCULATED BRIGHTNESS TEMPERATURES: SAT =11 ZENITH ANGLE=  0.00 AZIMUTH ANGLE=   0.00 SURFACE TYPE= 1
   297.98  294.58  292.34
  
 CALCULATED RADIANCES: SAT = 11
     0.57  103.49  114.52
  
 CALCULATED OVERCAST RADIANCES: SAT = 11
     0.14   66.89   79.41
  
 CALCULATED SURFACE TO SPACE TRANSMITTANCE: SAT = 11
   0.7442  0.4202  0.2855
  
 CALCULATED SURFACE EMISSIVITIES SAT = 11
    0.976   0.992   0.989
  
 Level to space transmittances for channels
          1       2       3
  1  0.9980  0.9980  0.9980
  2  0.9980  0.9980  0.9980
  3  0.9980  0.9980  0.9980
  4  0.9980  0.9980  0.9980
  5  0.9980  0.9980  0.9980
  6  0.9979  0.9979  0.9980
  7  0.9979  0.9979  0.9980
  8  0.9978  0.9979  0.9979
  9  0.9977  0.9978  0.9979
 10  0.9975  0.9978  0.9979
 11  0.9973  0.9977  0.9979
 12  0.9971  0.9977  0.9978
 13  0.9967  0.9976  0.9978
 14  0.9963  0.9975  0.9978
 15  0.9958  0.9974  0.9977
 16  0.9951  0.9973  0.9976
 17  0.9944  0.9972  0.9975
 18  0.9934  0.9970  0.9974
 19  0.9924  0.9968  0.9973
 20  0.9913  0.9966  0.9971
 21  0.9900  0.9964  0.9969
 22  0.9886  0.9960  0.9967
 23  0.9871  0.9956  0.9965
 24  0.9851  0.9951  0.9960
 25  0.9826  0.9943  0.9952
 26  0.9796  0.9933  0.9940
 27  0.9766  0.9921  0.9927
 28  0.9728  0.9905  0.9905
 29  0.9661  0.9865  0.9842
 30  0.9567  0.9792  0.9721
 31  0.9468  0.9709  0.9590
 32  0.9341  0.9572  0.9378
 33  0.9164  0.9296  0.8967
 34  0.8968  0.8909  0.8414
 35  0.8758  0.8406  0.7723
 36  0.8537  0.7779  0.6898
 37  0.8317  0.7110  0.6055
 38  0.8110  0.6460  0.5275
 39  0.7915  0.5824  0.4547
 40  0.7729  0.5179  0.3844
 41  0.7566  0.4612  0.3258
 42  0.7453  0.4237  0.2889
 43  0.7408  0.4093  0.2750
          1       2       3
