  INPUT PROFILE
  219.100 249.820 255.990 257.540 251.720 243.480 235.020 229.330 226.620 223.050
  218.620 215.080 212.130 207.950 202.510 194.340 193.150 198.050 205.490 212.480
  219.840 226.740 233.390 240.020 246.660 253.050 258.760 263.400 267.210 271.020
  275.130 278.310 281.060 283.330 285.480 287.820 290.440 292.760 294.820 296.760
  299.190 300.970 301.640
   -5.810  -5.810  -5.810  -5.810  -5.810  -5.810  -5.810  -5.810  -5.810  -5.810
   -5.810  -5.810  -5.810  -5.810  -5.810  -5.810  -5.810  -5.810  -5.810  -5.810
   -5.810  -5.810  -4.070  -1.410  -0.980  -0.960  -1.140  -0.150   0.820   1.070
    0.980   1.640   1.940   2.080   2.280   2.410   2.470   2.540   2.640   2.810
    2.870   2.900   2.910
    1.000   1.257   1.780   2.886   3.287   3.244   3.158   2.985   2.816   2.053
    1.485   1.340   1.273   1.044   0.899   0.740   0.555   0.360   0.267   0.160
    0.082   0.049   0.045   0.045   0.045   0.045   0.045   0.041   0.038   0.036
    0.035   0.034   0.033   0.032   0.031   0.029   0.027   0.026   0.025   0.026
    0.029   0.032   0.032
   -0.100   0.000   0.000   0.000   0.000   0.000   0.000   0.000   0.000   0.000
    0.000   0.000   0.000   0.000   0.000   0.000   0.000   0.000   0.000   0.000
    0.000   0.000   0.000   0.000   0.000   0.000   0.000   0.000   0.000   0.000
    0.000   0.000   0.000   0.000   0.000   0.000   0.000   0.000   0.000   0.000
    0.000   0.000   0.000
  301.640   2.9101007.300   5.000   2.000
  301.640   3.000   5.000  15.000   0.100   0.300
  500.000   0.000
  
  NUMBER OF PROFILES PROCESSED= 1
  
 CHANNELS PROCESSED:
        1       2       3       4       5       6       7       8       9      10
       11      12      13      14      15      16      17      18      19
  
 INPUT SURFACE EMISSIVITIES SAT = 18
    0.000   0.000   0.000   0.000   0.000   0.000   0.000   0.000   0.000   0.000
    0.000   0.000   0.000   0.000   0.000   0.000   0.000   0.000   0.000
  
  -----------------
  Profile number  1 Instrument  0
  -----------------
  
 CALCULATED BRIGHTNESS TEMPERATURES: SAT =18 ZENITH ANGLE=  0.00 AZIMUTH ANGLE=   0.00 SURFACE TYPE= 1
   232.18  217.17  216.81  231.54  245.38  261.81  274.35  294.27  276.88  287.52
   262.63  241.35  283.44  272.14  255.94  249.24  293.96  299.32  298.35
  
 CALCULATED RADIANCES: SAT = 18
    57.45   41.76   40.61   53.02   66.86   85.21  100.31  107.78   62.08  113.26
    17.16    4.63    1.86    1.09    0.46    0.31    1.22    1.06    0.59
  
 CALCULATED OVERCAST RADIANCES: SAT = 18
    57.45   41.76   40.60   52.39   63.59   75.72   83.08   70.98   40.17   84.77
    15.76    4.63    0.80    0.57    0.32    0.25    0.37    0.27    0.15
  
 CALCULATED SURFACE TO SPACE TRANSMITTANCE: SAT = 18
   0.0000  0.0000  0.0000  0.0001  0.0021  0.0119  0.0440  0.3835  0.3341  0.1387
   0.0000  0.0000  0.2487  0.0952  0.0152  0.0036  0.5771  0.8679  0.7555
  
 CALCULATED SURFACE EMISSIVITIES SAT = 18
    0.957   0.959   0.961   0.963   0.965   0.969   0.973   0.992   0.988   0.983
    0.981   0.978   0.979   0.979   0.979   0.979   0.978   0.977   0.975
  
 Level to space transmittances for channels
          1       2       3       4       5       6       7       8       9      10
  1  0.9655  0.9952  0.9966  0.9983  0.9983  0.9994  0.9999  1.0000  0.9994  1.0000
  2  0.9428  0.9918  0.9938  0.9967  0.9964  0.9986  0.9995  1.0000  0.9982  1.0000
  3  0.8984  0.9850  0.9883  0.9941  0.9938  0.9977  0.9989  1.0000  0.9952  1.0000
  4  0.8274  0.9733  0.9790  0.9903  0.9903  0.9963  0.9979  1.0000  0.9885  0.9999
  5  0.7362  0.9549  0.9647  0.9844  0.9850  0.9941  0.9967  1.0000  0.9778  0.9998
  6  0.6444  0.9278  0.9445  0.9761  0.9776  0.9910  0.9951  1.0000  0.9656  0.9997
  7  0.5625  0.8903  0.9174  0.9652  0.9679  0.9869  0.9931  1.0000  0.9513  0.9996
  8  0.4856  0.8414  0.8827  0.9515  0.9559  0.9817  0.9908  1.0000  0.9336  0.9994
  9  0.4094  0.7804  0.8395  0.9343  0.9412  0.9754  0.9879  1.0000  0.9116  0.9993
 10  0.3354  0.7078  0.7877  0.9134  0.9242  0.9680  0.9845  1.0000  0.8878  0.9991
 11  0.2661  0.6257  0.7284  0.8895  0.9059  0.9599  0.9810  0.9999  0.8662  0.9989
 12  0.2034  0.5369  0.6623  0.8626  0.8867  0.9512  0.9772  0.9999  0.8450  0.9988
 13  0.1485  0.4446  0.5901  0.8323  0.8661  0.9415  0.9730  0.9999  0.8203  0.9986
 14  0.1025  0.3526  0.5140  0.7992  0.8445  0.9310  0.9685  0.9998  0.7937  0.9984
 15  0.0658  0.2648  0.4370  0.7643  0.8231  0.9200  0.9641  0.9997  0.7694  0.9982
 16  0.0382  0.1849  0.3624  0.7292  0.8025  0.9089  0.9598  0.9996  0.7439  0.9981
 17  0.0198  0.1192  0.2942  0.6941  0.7826  0.8978  0.9557  0.9995  0.7220  0.9980
 18  0.0086  0.0676  0.2288  0.6519  0.7586  0.8842  0.9507  0.9994  0.7037  0.9978
 19  0.0032  0.0345  0.1724  0.6027  0.7292  0.8677  0.9440  0.9993  0.6894  0.9976
 20  0.0010  0.0155  0.1249  0.5456  0.6931  0.8474  0.9350  0.9991  0.6783  0.9973
 21  0.0002  0.0060  0.0870  0.4825  0.6505  0.8232  0.9235  0.9989  0.6711  0.9969
 22  0.0000  0.0021  0.0583  0.4163  0.6021  0.7950  0.9091  0.9987  0.6667  0.9964
 23  0.0000  0.0006  0.0376  0.3500  0.5489  0.7627  0.8917  0.9985  0.6633  0.9957
 24  0.0000  0.0002  0.0230  0.2850  0.4917  0.7258  0.8703  0.9982  0.6595  0.9931
 25  0.0000  0.0000  0.0135  0.2249  0.4323  0.6839  0.8443  0.9976  0.6554  0.9879
 26  0.0000  0.0000  0.0076  0.1729  0.3735  0.6386  0.8151  0.9968  0.6509  0.9819
 27  0.0000  0.0000  0.0042  0.1295  0.3177  0.5914  0.7840  0.9960  0.6462  0.9758
 28  0.0000  0.0000  0.0022  0.0942  0.2660  0.5418  0.7493  0.9947  0.6411  0.9663
 29  0.0000  0.0000  0.0012  0.0660  0.2184  0.4867  0.7060  0.9908  0.6351  0.9445
 30  0.0000  0.0000  0.0006  0.0448  0.1765  0.4289  0.6562  0.9830  0.6277  0.9126
 31  0.0000  0.0000  0.0003  0.0298  0.1414  0.3754  0.6075  0.9743  0.6196  0.8817
 32  0.0000  0.0000  0.0002  0.0192  0.1110  0.3208  0.5517  0.9596  0.6090  0.8388
 33  0.0000  0.0000  0.0001  0.0116  0.0834  0.2616  0.4804  0.9292  0.5925  0.7702
 34  0.0000  0.0000  0.0001  0.0068  0.0605  0.2055  0.4046  0.8865  0.5714  0.6890
 35  0.0000  0.0000  0.0000  0.0038  0.0421  0.1549  0.3285  0.8312  0.5456  0.5986
 36  0.0000  0.0000  0.0000  0.0020  0.0278  0.1111  0.2551  0.7625  0.5147  0.5019
 37  0.0000  0.0000  0.0000  0.0011  0.0179  0.0773  0.1930  0.6899  0.4819  0.4118
 38  0.0000  0.0000  0.0000  0.0005  0.0114  0.0532  0.1446  0.6200  0.4498  0.3349
 39  0.0000  0.0000  0.0000  0.0003  0.0073  0.0361  0.1070  0.5525  0.4181  0.2692
 40  0.0000  0.0000  0.0000  0.0001  0.0045  0.0240  0.0772  0.4846  0.3856  0.2114
 41  0.0000  0.0000  0.0000  0.0001  0.0029  0.0163  0.0564  0.4256  0.3562  0.1672
 42  0.0000  0.0000  0.0000  0.0001  0.0021  0.0123  0.0450  0.3871  0.3360  0.1410
 43  0.0000  0.0000  0.0000  0.0000  0.0019  0.0109  0.0410  0.3723  0.3281  0.1315
          1       2       3       4       5       6       7       8       9      10
  
 Level to space transmittances for channels
         11      12      13      14      15      16      17      18      19
  1  1.0000  0.9996  0.9998  1.0000  0.9994  0.9984  1.0000  1.0000  1.0000
  2  0.9999  0.9990  0.9997  0.9999  0.9985  0.9968  1.0000  1.0000  1.0000
  3  0.9998  0.9982  0.9996  0.9999  0.9969  0.9942  1.0000  1.0000  1.0000
  4  0.9996  0.9972  0.9995  0.9997  0.9946  0.9910  1.0000  1.0000  1.0000
  5  0.9992  0.9962  0.9993  0.9992  0.9917  0.9871  1.0000  1.0000  1.0000
  6  0.9986  0.9949  0.9988  0.9979  0.9877  0.9820  1.0000  1.0000  1.0000
  7  0.9978  0.9933  0.9979  0.9958  0.9823  0.9750  0.9999  1.0000  1.0000
  8  0.9968  0.9910  0.9966  0.9928  0.9754  0.9659  0.9999  0.9999  0.9999
  9  0.9955  0.9881  0.9949  0.9891  0.9669  0.9545  0.9998  0.9999  0.9999
 10  0.9941  0.9843  0.9927  0.9846  0.9565  0.9405  0.9996  0.9998  0.9998
 11  0.9923  0.9795  0.9901  0.9789  0.9439  0.9235  0.9994  0.9997  0.9998
 12  0.9902  0.9737  0.9869  0.9715  0.9287  0.9035  0.9990  0.9996  0.9997
 13  0.9875  0.9666  0.9829  0.9621  0.9103  0.8798  0.9984  0.9994  0.9996
 14  0.9843  0.9583  0.9778  0.9498  0.8879  0.8523  0.9975  0.9991  0.9995
 15  0.9806  0.9485  0.9713  0.9339  0.8613  0.8208  0.9961  0.9988  0.9993
 16  0.9763  0.9372  0.9636  0.9142  0.8306  0.7861  0.9942  0.9984  0.9991
 17  0.9717  0.9244  0.9549  0.8916  0.7968  0.7490  0.9914  0.9978  0.9989
 18  0.9662  0.9090  0.9440  0.8649  0.7570  0.7052  0.9877  0.9971  0.9986
 19  0.9599  0.8921  0.9310  0.8362  0.7136  0.6570  0.9831  0.9962  0.9983
 20  0.9526  0.8734  0.9156  0.8052  0.6658  0.6037  0.9776  0.9951  0.9980
 21  0.9442  0.8530  0.8975  0.7719  0.6144  0.5466  0.9709  0.9938  0.9976
 22  0.9349  0.8309  0.8770  0.7365  0.5604  0.4872  0.9631  0.9922  0.9971
 23  0.9200  0.7715  0.8541  0.6993  0.5048  0.4272  0.9539  0.9902  0.9966
 24  0.8604  0.4958  0.8286  0.6602  0.4487  0.3680  0.9432  0.9880  0.9958
 25  0.7770  0.2494  0.8009  0.6198  0.3936  0.3115  0.9311  0.9853  0.9943
 26  0.7023  0.1232  0.7712  0.5788  0.3409  0.2590  0.9175  0.9823  0.9925
 27  0.6415  0.0658  0.7402  0.5376  0.2917  0.2117  0.9023  0.9788  0.9907
 28  0.5591  0.0237  0.7078  0.4965  0.2469  0.1702  0.8857  0.9749  0.9880
 29  0.4130  0.0019  0.6730  0.4548  0.2067  0.1346  0.8674  0.9704  0.9821
 30  0.2701  0.0000  0.6363  0.4133  0.1712  0.1047  0.8476  0.9652  0.9731
 31  0.1757  0.0000  0.5997  0.3735  0.1406  0.0802  0.8265  0.9596  0.9637
 32  0.0986  0.0000  0.5617  0.3346  0.1144  0.0605  0.8040  0.9533  0.9512
 33  0.0426  0.0000  0.5215  0.2964  0.0921  0.0449  0.7801  0.9462  0.9331
 34  0.0162  0.0000  0.4815  0.2606  0.0737  0.0329  0.7550  0.9382  0.9128
 35  0.0055  0.0000  0.4424  0.2275  0.0587  0.0239  0.7292  0.9296  0.8912
 36  0.0016  0.0000  0.4046  0.1976  0.0467  0.0173  0.7028  0.9202  0.8684
 37  0.0004  0.0000  0.3692  0.1713  0.0372  0.0126  0.6767  0.9105  0.8457
 38  0.0001  0.0000  0.3372  0.1490  0.0298  0.0092  0.6516  0.9007  0.8244
 39  0.0000  0.0000  0.3088  0.1302  0.0242  0.0069  0.6282  0.8911  0.8044
 40  0.0000  0.0000  0.2838  0.1150  0.0201  0.0053  0.6072  0.8820  0.7852
 41  0.0000  0.0000  0.2635  0.1033  0.0172  0.0042  0.5900  0.8740  0.7683
 42  0.0000  0.0000  0.2500  0.0959  0.0154  0.0036  0.5782  0.8684  0.7566
 43  0.0000  0.0000  0.2447  0.0930  0.0147  0.0034  0.5735  0.8661  0.7519
         11      12      13      14      15      16      17      18      19
