  INPUT PROFILE
  219.100 249.820 255.990 257.540 251.720 243.480 235.020 229.330 226.620 223.050
  218.620 215.080 212.130 207.950 202.510 194.340 193.150 198.050 205.490 212.480
  219.840 226.740 233.390 240.020 246.660 253.050 258.760 263.400 267.210 271.020
  275.130 278.310 281.060 283.330 285.480 287.820 290.440 292.760 294.820 296.760
  299.190 300.970 301.640
   -5.810  -5.810  -5.810  -5.810  -5.810  -5.810  -5.810  -5.810  -5.810  -5.810
   -5.810  -5.810  -5.810  -5.810  -5.810  -5.810  -5.810  -5.810  -5.810  -5.810
   -5.810  -5.810  -4.070  -1.410  -0.980  -0.960  -1.140  -0.150   0.820   1.070
    0.980   1.640   1.940   2.080   2.280   2.410   2.470   2.540   2.640   2.810
    2.870   2.900   2.910
    1.000   1.257   1.780   2.886   3.287   3.244   3.158   2.985   2.816   2.053
    1.485   1.340   1.273   1.044   0.899   0.740   0.555   0.360   0.267   0.160
    0.082   0.049   0.045   0.045   0.045   0.045   0.045   0.041   0.038   0.036
    0.035   0.034   0.033   0.032   0.031   0.029   0.027   0.026   0.025   0.026
    0.029   0.032   0.032
   -0.100   0.000   0.000   0.000   0.000   0.000   0.000   0.000   0.000   0.000
    0.000   0.000   0.000   0.000   0.000   0.000   0.000   0.000   0.000   0.000
    0.000   0.000   0.000   0.000   0.000   0.000   0.000   0.000   0.000   0.000
    0.000   0.000   0.000   0.000   0.000   0.000   0.000   0.000   0.000   0.000
    0.000   0.000   0.000
  301.640   2.9101007.300   5.000   2.000
  301.640   3.000   5.000  15.000   0.100   0.300
  500.000   0.000
  
  NUMBER OF PROFILES PROCESSED= 1
  
 CHANNELS PROCESSED:
        1       2       3       4       5       6       7       8       9      10
       11      12      13      14      15      16      17      18      19
  
 INPUT SURFACE EMISSIVITIES SAT = 5
    0.000   0.000   0.000   0.000   0.000   0.000   0.000   0.000   0.000   0.000
    0.000   0.000   0.000   0.000   0.000   0.000   0.000   0.000   0.000
  
  -----------------
  Profile number  1 Instrument  0
  -----------------
  
 CALCULATED BRIGHTNESS TEMPERATURES: SAT = 5 ZENITH ANGLE=  0.00 AZIMUTH ANGLE=   0.00 SURFACE TYPE= 1
   230.52  217.75  217.45  232.73  248.46  261.20  272.83  294.16  277.78  288.80
   262.15  248.70  282.13  271.53  256.85  232.34  236.69  299.22  298.45
  
 CALCULATED RADIANCES: SAT = 5
    55.73   42.45   41.07   54.25   70.27   84.33   98.27  107.74   63.40   49.64
    17.01    7.34    1.75    1.05    0.48    0.11    0.09    1.08    0.61
  
 CALCULATED OVERCAST RADIANCES: SAT = 5
    55.73   42.45   41.06   53.33   65.86   75.11   82.09   71.09   40.92   30.58
    15.64    7.29    0.77    0.55    0.33    0.10    0.09    0.28    0.15
  
 CALCULATED SURFACE TO SPACE TRANSMITTANCE: SAT = 5
   0.0000  0.0000  0.0000  0.0002  0.0039  0.0115  0.0391  0.3789  0.3405  0.2875
   0.0000  0.0000  0.2254  0.0891  0.0194  0.0005  0.0001  0.8615  0.7652
  
 CALCULATED SURFACE EMISSIVITIES SAT = 5
    1.000   1.000   0.961   0.963   0.965   0.969   0.972   0.992   0.988   0.984
    0.981   0.979   0.979   0.979   0.979   0.979   0.978   0.977   0.975
  
 Level to space transmittances for channels
          1       2       3       4       5       6       7       8       9      10
  1  0.9691  0.9945  0.9967  0.9983  0.9985  0.9993  0.9998  1.0000  0.9995  1.0000
  2  0.9486  0.9907  0.9939  0.9967  0.9967  0.9985  0.9994  1.0000  0.9983  1.0000
  3  0.9088  0.9830  0.9886  0.9941  0.9943  0.9974  0.9987  1.0000  0.9955  1.0000
  4  0.8451  0.9702  0.9796  0.9902  0.9910  0.9958  0.9977  1.0000  0.9890  1.0000
  5  0.7627  0.9502  0.9659  0.9843  0.9861  0.9934  0.9963  1.0000  0.9786  0.9999
  6  0.6783  0.9213  0.9466  0.9759  0.9792  0.9899  0.9945  1.0000  0.9667  0.9998
  7  0.6013  0.8820  0.9208  0.9649  0.9702  0.9854  0.9923  1.0000  0.9528  0.9996
  8  0.5274  0.8312  0.8879  0.9509  0.9590  0.9797  0.9896  1.0000  0.9356  0.9993
  9  0.4530  0.7682  0.8470  0.9335  0.9453  0.9728  0.9864  1.0000  0.9144  0.9990
 10  0.3793  0.6938  0.7979  0.9123  0.9295  0.9648  0.9826  1.0000  0.8915  0.9986
 11  0.3087  0.6103  0.7416  0.8882  0.9126  0.9561  0.9786  0.9999  0.8709  0.9981
 12  0.2429  0.5205  0.6790  0.8611  0.8949  0.9468  0.9743  0.9999  0.8506  0.9975
 13  0.1835  0.4280  0.6105  0.8308  0.8758  0.9365  0.9695  0.9999  0.8269  0.9967
 14  0.1318  0.3366  0.5382  0.7976  0.8559  0.9254  0.9644  0.9998  0.8015  0.9958
 15  0.0888  0.2505  0.4648  0.7628  0.8362  0.9140  0.9593  0.9997  0.7783  0.9947
 16  0.0548  0.1730  0.3933  0.7279  0.8171  0.9026  0.9544  0.9996  0.7541  0.9934
 17  0.0309  0.1101  0.3275  0.6932  0.7987  0.8913  0.9497  0.9995  0.7334  0.9921
 18  0.0151  0.0616  0.2628  0.6520  0.7765  0.8775  0.9438  0.9994  0.7161  0.9905
 19  0.0067  0.0312  0.2050  0.6043  0.7495  0.8607  0.9361  0.9993  0.7026  0.9885
 20  0.0027  0.0140  0.1544  0.5495  0.7165  0.8399  0.9258  0.9991  0.6920  0.9862
 21  0.0011  0.0056  0.1122  0.4892  0.6775  0.8151  0.9127  0.9989  0.6852  0.9834
 22  0.0005  0.0021  0.0787  0.4259  0.6331  0.7863  0.8964  0.9987  0.6810  0.9803
 23  0.0003  0.0007  0.0532  0.3623  0.5841  0.7534  0.8769  0.9985  0.6777  0.9765
 24  0.0001  0.0002  0.0342  0.2997  0.5313  0.7159  0.8532  0.9981  0.6741  0.9702
 25  0.0001  0.0001  0.0211  0.2414  0.4757  0.6733  0.8247  0.9975  0.6701  0.9608
 26  0.0001  0.0000  0.0126  0.1902  0.4200  0.6276  0.7932  0.9967  0.6659  0.9507
 27  0.0000  0.0000  0.0073  0.1469  0.3661  0.5803  0.7597  0.9959  0.6613  0.9406
 28  0.0000  0.0000  0.0042  0.1110  0.3151  0.5309  0.7229  0.9945  0.6564  0.9273
 29  0.0000  0.0000  0.0023  0.0816  0.2667  0.4760  0.6779  0.9903  0.6505  0.9027
 30  0.0000  0.0000  0.0013  0.0588  0.2224  0.4188  0.6269  0.9821  0.6431  0.8709
 31  0.0000  0.0000  0.0008  0.0421  0.1842  0.3660  0.5774  0.9731  0.6350  0.8408
 32  0.0000  0.0000  0.0004  0.0295  0.1495  0.3123  0.5215  0.9578  0.6242  0.8026
 33  0.0000  0.0000  0.0003  0.0198  0.1163  0.2541  0.4512  0.9267  0.6074  0.7499
 34  0.0000  0.0000  0.0001  0.0129  0.0873  0.1992  0.3775  0.8833  0.5857  0.6921
 35  0.0000  0.0000  0.0001  0.0081  0.0630  0.1498  0.3043  0.8273  0.5592  0.6312
 36  0.0000  0.0000  0.0000  0.0049  0.0432  0.1072  0.2346  0.7581  0.5273  0.5675
 37  0.0000  0.0000  0.0000  0.0029  0.0289  0.0745  0.1762  0.6851  0.4934  0.5066
 38  0.0000  0.0000  0.0000  0.0017  0.0191  0.0512  0.1311  0.6150  0.4602  0.4515
 39  0.0000  0.0000  0.0000  0.0010  0.0125  0.0347  0.0963  0.5474  0.4275  0.4014
 40  0.0000  0.0000  0.0000  0.0006  0.0081  0.0230  0.0691  0.4796  0.3938  0.3547
 41  0.0000  0.0000  0.0000  0.0004  0.0054  0.0156  0.0503  0.4208  0.3634  0.3155
 42  0.0000  0.0000  0.0000  0.0003  0.0040  0.0118  0.0399  0.3825  0.3425  0.2899
 43  0.0000  0.0000  0.0000  0.0002  0.0035  0.0105  0.0364  0.3678  0.3343  0.2800
          1       2       3       4       5       6       7       8       9      10
  
 Level to space transmittances for channels
         11      12      13      14      15      16      17      18      19
  1  1.0000  0.9998  0.9998  1.0000  0.9993  0.9952  0.9798  1.0000  1.0000
  2  0.9999  0.9994  0.9998  0.9999  0.9983  0.9922  0.9672  1.0000  1.0000
  3  0.9998  0.9989  0.9997  0.9998  0.9966  0.9868  0.9434  1.0000  1.0000
  4  0.9995  0.9983  0.9995  0.9996  0.9944  0.9797  0.9043  1.0000  1.0000
  5  0.9991  0.9976  0.9993  0.9991  0.9915  0.9707  0.8445  1.0000  1.0000
  6  0.9984  0.9968  0.9987  0.9978  0.9875  0.9590  0.7584  1.0000  1.0000
  7  0.9976  0.9958  0.9977  0.9956  0.9821  0.9438  0.6440  1.0000  1.0000
  8  0.9965  0.9945  0.9962  0.9925  0.9752  0.9244  0.5067  0.9999  0.9999
  9  0.9952  0.9929  0.9942  0.9887  0.9667  0.8998  0.3602  0.9999  0.9999
 10  0.9937  0.9907  0.9918  0.9840  0.9563  0.8696  0.2252  0.9998  0.9998
 11  0.9918  0.9880  0.9888  0.9781  0.9436  0.8338  0.1221  0.9997  0.9998
 12  0.9895  0.9846  0.9851  0.9705  0.9283  0.7924  0.0591  0.9996  0.9997
 13  0.9866  0.9806  0.9805  0.9606  0.9099  0.7456  0.0280  0.9994  0.9995
 14  0.9831  0.9759  0.9746  0.9479  0.8877  0.6938  0.0145  0.9991  0.9994
 15  0.9791  0.9703  0.9671  0.9314  0.8613  0.6376  0.0090  0.9988  0.9992
 16  0.9745  0.9639  0.9581  0.9109  0.8312  0.5777  0.0066  0.9983  0.9990
 17  0.9695  0.9567  0.9479  0.8874  0.7981  0.5166  0.0054  0.9977  0.9987
 18  0.9635  0.9481  0.9352  0.8596  0.7591  0.4507  0.0046  0.9970  0.9984
 19  0.9567  0.9383  0.9204  0.8301  0.7163  0.3864  0.0039  0.9960  0.9981
 20  0.9489  0.9275  0.9031  0.7982  0.6692  0.3239  0.0033  0.9949  0.9977
 21  0.9401  0.9155  0.8832  0.7642  0.6185  0.2651  0.0028  0.9934  0.9972
 22  0.9302  0.9022  0.8607  0.7283  0.5652  0.2118  0.0024  0.9917  0.9967
 23  0.9145  0.8651  0.8358  0.6905  0.5103  0.1651  0.0020  0.9897  0.9962
 24  0.8515  0.6676  0.8084  0.6509  0.4550  0.1255  0.0017  0.9872  0.9952
 25  0.7644  0.4584  0.7788  0.6101  0.4007  0.0930  0.0014  0.9844  0.9937
 26  0.6874  0.3206  0.7474  0.5686  0.3486  0.0674  0.0012  0.9812  0.9919
 27  0.6255  0.2375  0.7147  0.5272  0.3000  0.0478  0.0010  0.9774  0.9901
 28  0.5425  0.1491  0.6809  0.4857  0.2556  0.0335  0.0008  0.9732  0.9875
 29  0.3983  0.0527  0.6448  0.4441  0.2157  0.0232  0.0007  0.9684  0.9819
 30  0.2604  0.0131  0.6071  0.4027  0.1803  0.0160  0.0006  0.9630  0.9734
 31  0.1705  0.0035  0.5696  0.3629  0.1496  0.0110  0.0005  0.9570  0.9645
 32  0.0972  0.0006  0.5312  0.3243  0.1232  0.0077  0.0004  0.9504  0.9526
 33  0.0433  0.0000  0.4909  0.2865  0.1006  0.0053  0.0003  0.9428  0.9355
 34  0.0174  0.0000  0.4510  0.2512  0.0818  0.0037  0.0003  0.9345  0.9163
 35  0.0063  0.0000  0.4124  0.2186  0.0663  0.0027  0.0002  0.9255  0.8958
 36  0.0021  0.0000  0.3752  0.1892  0.0536  0.0019  0.0002  0.9157  0.8740
 37  0.0007  0.0000  0.3408  0.1634  0.0435  0.0014  0.0001  0.9056  0.8522
 38  0.0002  0.0000  0.3098  0.1415  0.0356  0.0011  0.0001  0.8954  0.8318
 39  0.0001  0.0000  0.2824  0.1232  0.0295  0.0008  0.0001  0.8855  0.8125
 40  0.0000  0.0000  0.2586  0.1083  0.0249  0.0007  0.0001  0.8760  0.7939
 41  0.0000  0.0000  0.2394  0.0970  0.0216  0.0006  0.0001  0.8678  0.7776
 42  0.0000  0.0000  0.2266  0.0898  0.0196  0.0005  0.0001  0.8620  0.7662
 43  0.0000  0.0000  0.2216  0.0870  0.0189  0.0005  0.0001  0.8597  0.7617
         11      12      13      14      15      16      17      18      19
