  INPUT PROFILE
  219.100 249.820 255.990 257.540 251.720 243.480 235.020 229.330 226.620 223.050
  218.620 215.080 212.130 207.950 202.510 194.340 193.150 198.050 205.490 212.480
  219.840 226.740 233.390 240.020 246.660 253.050 258.760 263.400 267.210 271.020
  275.130 278.310 281.060 283.330 285.480 287.820 290.440 292.760 294.820 296.760
  299.190 300.970 301.640
   -5.810  -5.810  -5.810  -5.810  -5.810  -5.810  -5.810  -5.810  -5.810  -5.810
   -5.810  -5.810  -5.810  -5.810  -5.810  -5.810  -5.810  -5.810  -5.810  -5.810
   -5.810  -5.810  -4.070  -1.410  -0.980  -0.960  -1.140  -0.150   0.820   1.070
    0.980   1.640   1.940   2.080   2.280   2.410   2.470   2.540   2.640   2.810
    2.870   2.900   2.910
    1.000   1.257   1.780   2.886   3.287   3.244   3.158   2.985   2.816   2.053
    1.485   1.340   1.273   1.044   0.899   0.740   0.555   0.360   0.267   0.160
    0.082   0.049   0.045   0.045   0.045   0.045   0.045   0.041   0.038   0.036
    0.035   0.034   0.033   0.032   0.031   0.029   0.027   0.026   0.025   0.026
    0.029   0.032   0.032
   -0.100   0.000   0.000   0.000   0.000   0.000   0.000   0.000   0.000   0.000
    0.000   0.000   0.000   0.000   0.000   0.000   0.000   0.000   0.000   0.000
    0.000   0.000   0.000   0.000   0.000   0.000   0.000   0.000   0.000   0.000
    0.000   0.000   0.000   0.000   0.000   0.000   0.000   0.000   0.000   0.000
    0.000   0.000   0.000
  301.640   2.9101007.300   5.000   2.000
  301.640   3.000   5.000  15.000   0.100   0.300
  500.000   0.000
  
  NUMBER OF PROFILES PROCESSED= 1
  
 CHANNELS PROCESSED:
        1       2       3       4       5       6       7       8       9      10
       11      12      13      14      15      16      17      18      19
  
 INPUT SURFACE EMISSIVITIES SAT = 6
    0.000   0.000   0.000   0.000   0.000   0.000   0.000   0.000   0.000   0.000
    0.000   0.000   0.000   0.000   0.000   0.000   0.000   0.000   0.000
  
  -----------------
  Profile number  1 Instrument  0
  -----------------
  
 CALCULATED BRIGHTNESS TEMPERATURES: SAT = 6 ZENITH ANGLE=  0.00 AZIMUTH ANGLE=   0.00 SURFACE TYPE= 1
   228.67  217.73  217.35  233.23  250.35  261.24  273.13  294.29  277.68  288.35
   261.65  249.05  282.59  271.51  257.42  230.17  236.94  299.28  298.54
  
 CALCULATED RADIANCES: SAT = 6
    53.88   42.41   41.05   54.65   72.34   84.35   98.65  107.90   63.27   48.92
    16.49    7.48    1.79    1.05    0.49    0.10    0.09    1.06    0.64
  
 CALCULATED OVERCAST RADIANCES: SAT = 6
    53.88   42.41   41.03   53.66   67.16   75.12   82.28   71.06   40.85   30.28
    15.31    7.43    0.78    0.55    0.33    0.09    0.09    0.27    0.16
  
 CALCULATED SURFACE TO SPACE TRANSMITTANCE: SAT = 6
   0.0000  0.0000  0.0000  0.0003  0.0052  0.0115  0.0399  0.3839  0.3396  0.2775
   0.0000  0.0000  0.2324  0.0890  0.0209  0.0000  0.0003  0.8653  0.7741
  
 CALCULATED SURFACE EMISSIVITIES SAT = 6
    0.957   0.959   0.961   0.963   0.966   0.969   0.972   0.992   0.988   0.983
    0.981   0.979   0.979   0.979   0.979   0.979   0.978   0.977   0.975
  
 Level to space transmittances for channels
          1       2       3       4       5       6       7       8       9      10
  1  0.9719  0.9945  0.9965  0.9983  0.9985  0.9993  0.9998  1.0000  0.9995  1.0000
  2  0.9535  0.9906  0.9937  0.9967  0.9967  0.9985  0.9995  1.0000  0.9983  1.0000
  3  0.9175  0.9830  0.9882  0.9941  0.9943  0.9974  0.9987  1.0000  0.9955  1.0000
  4  0.8599  0.9701  0.9789  0.9902  0.9911  0.9958  0.9977  1.0000  0.9890  0.9999
  5  0.7862  0.9501  0.9648  0.9844  0.9863  0.9934  0.9963  1.0000  0.9785  0.9999
  6  0.7113  0.9214  0.9448  0.9761  0.9795  0.9900  0.9946  1.0000  0.9666  0.9997
  7  0.6429  0.8824  0.9181  0.9652  0.9705  0.9855  0.9924  1.0000  0.9526  0.9995
  8  0.5755  0.8321  0.8840  0.9514  0.9594  0.9799  0.9898  1.0000  0.9353  0.9992
  9  0.5049  0.7697  0.8417  0.9342  0.9460  0.9730  0.9867  1.0000  0.9140  0.9989
 10  0.4318  0.6961  0.7910  0.9133  0.9304  0.9650  0.9830  1.0000  0.8910  0.9984
 11  0.3584  0.6134  0.7329  0.8895  0.9139  0.9564  0.9790  0.9999  0.8703  0.9979
 12  0.2867  0.5244  0.6683  0.8628  0.8966  0.9471  0.9748  0.9999  0.8499  0.9972
 13  0.2193  0.4325  0.5980  0.8328  0.8781  0.9368  0.9701  0.9999  0.8261  0.9963
 14  0.1586  0.3416  0.5240  0.8001  0.8590  0.9258  0.9651  0.9998  0.8006  0.9953
 15  0.1067  0.2556  0.4493  0.7659  0.8400  0.9145  0.9601  0.9997  0.7773  0.9940
 16  0.0653  0.1781  0.3767  0.7316  0.8218  0.9031  0.9553  0.9997  0.7529  0.9926
 17  0.0361  0.1151  0.3104  0.6974  0.8042  0.8919  0.9507  0.9996  0.7321  0.9911
 18  0.0170  0.0659  0.2462  0.6569  0.7832  0.8781  0.9451  0.9994  0.7147  0.9892
 19  0.0071  0.0347  0.1899  0.6099  0.7577  0.8614  0.9375  0.9993  0.7011  0.9870
 20  0.0025  0.0168  0.1415  0.5557  0.7267  0.8406  0.9275  0.9992  0.6905  0.9844
 21  0.0008  0.0077  0.1018  0.4960  0.6902  0.8158  0.9147  0.9990  0.6837  0.9813
 22  0.0002  0.0035  0.0709  0.4332  0.6488  0.7870  0.8988  0.9988  0.6794  0.9777
 23  0.0000  0.0016  0.0477  0.3699  0.6030  0.7541  0.8797  0.9986  0.6761  0.9736
 24  0.0000  0.0008  0.0307  0.3074  0.5534  0.7165  0.8565  0.9983  0.6725  0.9667
 25  0.0000  0.0004  0.0190  0.2488  0.5010  0.6738  0.8285  0.9977  0.6685  0.9566
 26  0.0000  0.0002  0.0114  0.1972  0.4479  0.6281  0.7975  0.9970  0.6642  0.9458
 27  0.0000  0.0001  0.0067  0.1532  0.3961  0.5807  0.7645  0.9962  0.6597  0.9351
 28  0.0000  0.0000  0.0039  0.1166  0.3463  0.5312  0.7281  0.9949  0.6548  0.9211
 29  0.0000  0.0000  0.0023  0.0864  0.2980  0.4763  0.6834  0.9910  0.6489  0.8954
 30  0.0000  0.0000  0.0013  0.0628  0.2528  0.4192  0.6326  0.9833  0.6414  0.8626
 31  0.0000  0.0000  0.0008  0.0454  0.2129  0.3664  0.5833  0.9747  0.6333  0.8314
 32  0.0000  0.0000  0.0005  0.0321  0.1758  0.3126  0.5274  0.9601  0.6225  0.7922
 33  0.0000  0.0000  0.0003  0.0218  0.1391  0.2544  0.4568  0.9298  0.6057  0.7384
 34  0.0000  0.0000  0.0002  0.0143  0.1061  0.1994  0.3827  0.8872  0.5841  0.6798
 35  0.0000  0.0000  0.0001  0.0091  0.0778  0.1499  0.3089  0.8319  0.5576  0.6183
 36  0.0000  0.0000  0.0000  0.0055  0.0543  0.1074  0.2385  0.7633  0.5257  0.5545
 37  0.0000  0.0000  0.0000  0.0033  0.0368  0.0746  0.1793  0.6906  0.4920  0.4937
 38  0.0000  0.0000  0.0000  0.0019  0.0247  0.0512  0.1335  0.6207  0.4589  0.4390
 39  0.0000  0.0000  0.0000  0.0011  0.0164  0.0348  0.0983  0.5531  0.4262  0.3895
 40  0.0000  0.0000  0.0000  0.0007  0.0107  0.0231  0.0705  0.4851  0.3927  0.3434
 41  0.0000  0.0000  0.0000  0.0004  0.0072  0.0157  0.0514  0.4261  0.3624  0.3050
 42  0.0000  0.0000  0.0000  0.0003  0.0053  0.0118  0.0408  0.3875  0.3416  0.2799
 43  0.0000  0.0000  0.0000  0.0003  0.0047  0.0105  0.0372  0.3727  0.3334  0.2702
          1       2       3       4       5       6       7       8       9      10
  
 Level to space transmittances for channels
         11      12      13      14      15      16      17      18      19
  1  1.0000  0.9998  0.9998  1.0000  0.9994  0.9954  0.9809  1.0000  1.0000
  2  0.9999  0.9995  0.9998  0.9999  0.9985  0.9933  0.9686  1.0000  1.0000
  3  0.9998  0.9989  0.9997  0.9999  0.9969  0.9896  0.9450  1.0000  1.0000
  4  0.9995  0.9983  0.9995  0.9997  0.9948  0.9842  0.9061  1.0000  1.0000
  5  0.9991  0.9976  0.9993  0.9991  0.9920  0.9768  0.8461  1.0000  1.0000
  6  0.9985  0.9968  0.9987  0.9978  0.9881  0.9665  0.7594  1.0000  1.0000
  7  0.9978  0.9959  0.9978  0.9956  0.9829  0.9526  0.6443  1.0000  1.0000
  8  0.9968  0.9946  0.9964  0.9925  0.9762  0.9345  0.5061  0.9999  0.9999
  9  0.9957  0.9929  0.9945  0.9887  0.9680  0.9115  0.3594  0.9999  0.9999
 10  0.9944  0.9908  0.9922  0.9841  0.9579  0.8830  0.2252  0.9998  0.9998
 11  0.9927  0.9881  0.9893  0.9781  0.9457  0.8486  0.1239  0.9997  0.9997
 12  0.9907  0.9849  0.9858  0.9705  0.9309  0.8083  0.0627  0.9995  0.9996
 13  0.9883  0.9809  0.9815  0.9607  0.9129  0.7620  0.0324  0.9993  0.9995
 14  0.9854  0.9763  0.9759  0.9480  0.8912  0.7099  0.0187  0.9991  0.9993
 15  0.9820  0.9708  0.9688  0.9315  0.8653  0.6524  0.0124  0.9987  0.9991
 16  0.9782  0.9646  0.9604  0.9111  0.8355  0.5900  0.0095  0.9983  0.9989
 17  0.9741  0.9575  0.9508  0.8875  0.8026  0.5254  0.0079  0.9977  0.9986
 18  0.9692  0.9490  0.9389  0.8598  0.7639  0.4557  0.0067  0.9969  0.9982
 19  0.9635  0.9395  0.9249  0.8302  0.7215  0.3880  0.0058  0.9960  0.9978
 20  0.9568  0.9289  0.9083  0.7984  0.6749  0.3224  0.0050  0.9949  0.9974
 21  0.9492  0.9171  0.8891  0.7643  0.6247  0.2608  0.0044  0.9935  0.9968
 22  0.9407  0.9041  0.8674  0.7283  0.5719  0.2051  0.0039  0.9918  0.9963
 23  0.9256  0.8676  0.8432  0.6905  0.5175  0.1564  0.0035  0.9898  0.9956
 24  0.8577  0.6733  0.8165  0.6509  0.4625  0.1155  0.0031  0.9874  0.9946
 25  0.7632  0.4671  0.7875  0.6101  0.4083  0.0826  0.0027  0.9847  0.9930
 26  0.6806  0.3305  0.7567  0.5686  0.3564  0.0573  0.0024  0.9816  0.9912
 27  0.6150  0.2474  0.7246  0.5272  0.3077  0.0385  0.0021  0.9780  0.9893
 28  0.5269  0.1583  0.6911  0.4858  0.2631  0.0251  0.0019  0.9740  0.9867
 29  0.3750  0.0588  0.6554  0.4441  0.2228  0.0159  0.0016  0.9694  0.9813
 30  0.2346  0.0156  0.6178  0.4026  0.1870  0.0099  0.0014  0.9641  0.9732
 31  0.1471  0.0044  0.5805  0.3628  0.1558  0.0060  0.0013  0.9584  0.9647
 32  0.0791  0.0008  0.5420  0.3242  0.1288  0.0036  0.0011  0.9520  0.9534
 33  0.0325  0.0001  0.5015  0.2863  0.1056  0.0021  0.0010  0.9447  0.9372
 34  0.0119  0.0000  0.4614  0.2508  0.0862  0.0012  0.0008  0.9367  0.9190
 35  0.0040  0.0000  0.4224  0.2183  0.0701  0.0007  0.0007  0.9279  0.8994
 36  0.0012  0.0000  0.3849  0.1888  0.0569  0.0004  0.0006  0.9184  0.8786
 37  0.0004  0.0000  0.3500  0.1631  0.0464  0.0003  0.0006  0.9085  0.8578
 38  0.0001  0.0000  0.3185  0.1412  0.0380  0.0002  0.0005  0.8986  0.8382
 39  0.0000  0.0000  0.2907  0.1230  0.0316  0.0001  0.0004  0.8889  0.8196
 40  0.0000  0.0000  0.2664  0.1081  0.0267  0.0001  0.0004  0.8796  0.8018
 41  0.0000  0.0000  0.2467  0.0969  0.0232  0.0001  0.0004  0.8716  0.7861
 42  0.0000  0.0000  0.2337  0.0897  0.0211  0.0000  0.0003  0.8659  0.7752
 43  0.0000  0.0000  0.2285  0.0869  0.0203  0.0000  0.0003  0.8636  0.7708
         11      12      13      14      15      16      17      18      19
