  INPUT PROFILE
  219.100 249.820 255.990 257.540 251.720 243.480 235.020 229.330 226.620 223.050
  218.620 215.080 212.130 207.950 202.510 194.340 193.150 198.050 205.490 212.480
  219.840 226.740 233.390 240.020 246.660 253.050 258.760 263.400 267.210 271.020
  275.130 278.310 281.060 283.330 285.480 287.820 290.440 292.760 294.820 296.760
  299.190 300.970 301.640
   -5.810  -5.810  -5.810  -5.810  -5.810  -5.810  -5.810  -5.810  -5.810  -5.810
   -5.810  -5.810  -5.810  -5.810  -5.810  -5.810  -5.810  -5.810  -5.810  -5.810
   -5.810  -5.810  -4.070  -1.410  -0.980  -0.960  -1.140  -0.150   0.820   1.070
    0.980   1.640   1.940   2.080   2.280   2.410   2.470   2.540   2.640   2.810
    2.870   2.900   2.910
    1.000   1.257   1.780   2.886   3.287   3.244   3.158   2.985   2.816   2.053
    1.485   1.340   1.273   1.044   0.899   0.740   0.555   0.360   0.267   0.160
    0.082   0.049   0.045   0.045   0.045   0.045   0.045   0.041   0.038   0.036
    0.035   0.034   0.033   0.032   0.031   0.029   0.027   0.026   0.025   0.026
    0.029   0.032   0.032
   -0.100   0.000   0.000   0.000   0.000   0.000   0.000   0.000   0.000   0.000
    0.000   0.000   0.000   0.000   0.000   0.000   0.000   0.000   0.000   0.000
    0.000   0.000   0.000   0.000   0.000   0.000   0.000   0.000   0.000   0.000
    0.000   0.000   0.000   0.000   0.000   0.000   0.000   0.000   0.000   0.000
    0.000   0.000   0.000
  301.640   2.9101007.300   5.000   2.000
  301.640   3.000   5.000  15.000   0.100   0.300
  500.000   0.000
  
  NUMBER OF PROFILES PROCESSED= 1
  
 CHANNELS PROCESSED:
        1       2       3
  
 INPUT SURFACE EMISSIVITIES SAT = 14
    0.000   0.000   0.000
  
  -----------------
  Profile number  1 Instrument  5
  -----------------
  
 CALCULATED BRIGHTNESS TEMPERATURES: SAT =14 ZENITH ANGLE=  0.00 AZIMUTH ANGLE=   0.00 SURFACE TYPE= 1
   298.13  294.58  291.88
  
 CALCULATED RADIANCES: SAT = 14
     0.63  103.20  114.97
  
 CALCULATED OVERCAST RADIANCES: SAT = 14
     0.16   66.65   80.43
  
 CALCULATED SURFACE TO SPACE TRANSMITTANCE: SAT = 14
   0.7594  0.4218  0.2678
  
 CALCULATED SURFACE EMISSIVITIES SAT = 14
    0.976   0.992   0.988
  
 Level to space transmittances for channels
          1       2       3
  1  0.9980  0.9980  0.9980
  2  0.9980  0.9980  0.9980
  3  0.9980  0.9980  0.9980
  4  0.9980  0.9980  0.9980
  5  0.9980  0.9979  0.9980
  6  0.9979  0.9979  0.9980
  7  0.9979  0.9978  0.9979
  8  0.9978  0.9978  0.9979
  9  0.9977  0.9977  0.9979
 10  0.9975  0.9976  0.9978
 11  0.9974  0.9975  0.9978
 12  0.9971  0.9974  0.9978
 13  0.9968  0.9973  0.9977
 14  0.9964  0.9972  0.9976
 15  0.9959  0.9971  0.9976
 16  0.9953  0.9970  0.9975
 17  0.9945  0.9969  0.9974
 18  0.9936  0.9967  0.9973
 19  0.9926  0.9965  0.9972
 20  0.9914  0.9963  0.9970
 21  0.9902  0.9960  0.9968
 22  0.9887  0.9957  0.9966
 23  0.9871  0.9953  0.9963
 24  0.9851  0.9948  0.9957
 25  0.9825  0.9940  0.9946
 26  0.9796  0.9930  0.9931
 27  0.9765  0.9918  0.9915
 28  0.9727  0.9901  0.9888
 29  0.9662  0.9862  0.9813
 30  0.9573  0.9788  0.9677
 31  0.9479  0.9705  0.9531
 32  0.9360  0.9568  0.9300
 33  0.9196  0.9292  0.8863
 34  0.9014  0.8907  0.8282
 35  0.8820  0.8406  0.7564
 36  0.8615  0.7781  0.6718
 37  0.8411  0.7115  0.5861
 38  0.8218  0.6468  0.5074
 39  0.8036  0.5835  0.4345
 40  0.7862  0.5192  0.3649
 41  0.7710  0.4627  0.3072
 42  0.7604  0.4253  0.2711
 43  0.7562  0.4109  0.2576
          1       2       3
