  INPUT PROFILE
  219.100 249.820 255.990 257.540 251.720 243.480 235.020 229.330 226.620 223.050
  218.620 215.080 212.130 207.950 202.510 194.340 193.150 198.050 205.490 212.480
  219.840 226.740 233.390 240.020 246.660 253.050 258.760 263.400 267.210 271.020
  275.130 278.310 281.060 283.330 285.480 287.820 290.440 292.760 294.820 296.760
  299.190 300.970 301.640
   -5.810  -5.810  -5.810  -5.810  -5.810  -5.810  -5.810  -5.810  -5.810  -5.810
   -5.810  -5.810  -5.810  -5.810  -5.810  -5.810  -5.810  -5.810  -5.810  -5.810
   -5.810  -5.810  -4.070  -1.410  -0.980  -0.960  -1.140  -0.150   0.820   1.070
    0.980   1.640   1.940   2.080   2.280   2.410   2.470   2.540   2.640   2.810
    2.870   2.900   2.910
    1.000   1.257   1.780   2.886   3.287   3.244   3.158   2.985   2.816   2.053
    1.485   1.340   1.273   1.044   0.899   0.740   0.555   0.360   0.267   0.160
    0.082   0.049   0.045   0.045   0.045   0.045   0.045   0.041   0.038   0.036
    0.035   0.034   0.033   0.032   0.031   0.029   0.027   0.026   0.025   0.026
    0.029   0.032   0.032
   -0.100   0.000   0.000   0.000   0.000   0.000   0.000   0.000   0.000   0.000
    0.000   0.000   0.000   0.000   0.000   0.000   0.000   0.000   0.000   0.000
    0.000   0.000   0.000   0.000   0.000   0.000   0.000   0.000   0.000   0.000
    0.000   0.000   0.000   0.000   0.000   0.000   0.000   0.000   0.000   0.000
    0.000   0.000   0.000
  301.640   2.9101007.300   5.000   2.000
  301.640   3.000   5.000  15.000   0.100   0.300
  500.000   0.000
  
  NUMBER OF PROFILES PROCESSED= 1
  
 CHANNELS PROCESSED:
        1       2       3       4       5       6       7       8       9      10
       11      12      13      14      15      16      17      18      19
  
 INPUT SURFACE EMISSIVITIES SAT = 9
    0.000   0.000   0.000   0.000   0.000   0.000   0.000   0.000   0.000   0.000
    0.000   0.000   0.000   0.000   0.000   0.000   0.000   0.000   0.000
  
  -----------------
  Profile number  1 Instrument  0
  -----------------
  
 CALCULATED BRIGHTNESS TEMPERATURES: SAT = 9 ZENITH ANGLE=  0.00 AZIMUTH ANGLE=   0.00 SURFACE TYPE= 1
   229.94  217.53  217.67  231.34  249.79  261.46  273.71  294.21  277.24  289.06
   261.94  248.69  282.47  271.85  252.07  231.57  236.75  299.28  298.46
  
 CALCULATED RADIANCES: SAT = 9
    55.21   42.19   41.22   52.84   71.73   84.57   99.44  108.08   62.32   50.00
    16.76    7.32    1.78    1.07    0.37    0.10    0.09    1.06    0.60
  
 CALCULATED OVERCAST RADIANCES: SAT = 9
    55.21   42.19   41.19   52.08   66.83   75.24   82.69   71.33   40.20   30.68
    15.48    7.27    0.78    0.56    0.28    0.10    0.09    0.27    0.15
  
 CALCULATED SURFACE TO SPACE TRANSMITTANCE: SAT = 9
   0.0000  0.0000  0.0000  0.0002  0.0046  0.0118  0.0413  0.3792  0.3398  0.2941
   0.0000  0.0000  0.2304  0.0926  0.0072  0.0003  0.0002  0.8659  0.7653
  
 CALCULATED SURFACE EMISSIVITIES SAT = 9
    0.957   0.959   0.961   0.963   0.966   0.969   0.972   0.992   0.988   0.984
    0.981   0.979   0.979   0.979   0.979   0.979   0.978   0.977   0.975
  
 Level to space transmittances for channels
          1       2       3       4       5       6       7       8       9      10
  1  0.9681  0.9948  0.9967  0.9982  0.9985  0.9993  0.9998  1.0000  0.9995  1.0000
  2  0.9474  0.9910  0.9940  0.9966  0.9967  0.9985  0.9995  1.0000  0.9983  1.0000
  3  0.9066  0.9836  0.9888  0.9938  0.9944  0.9974  0.9988  1.0000  0.9954  1.0000
  4  0.8416  0.9711  0.9800  0.9898  0.9911  0.9959  0.9978  1.0000  0.9887  1.0000
  5  0.7591  0.9517  0.9665  0.9835  0.9863  0.9935  0.9965  1.0000  0.9781  0.9999
  6  0.6778  0.9235  0.9476  0.9747  0.9796  0.9902  0.9949  1.0000  0.9659  0.9998
  7  0.6072  0.8852  0.9224  0.9631  0.9706  0.9858  0.9928  1.0000  0.9516  0.9996
  8  0.5407  0.8355  0.8902  0.9484  0.9596  0.9803  0.9903  1.0000  0.9340  0.9993
  9  0.4727  0.7737  0.8501  0.9300  0.9462  0.9736  0.9873  1.0000  0.9122  0.9990
 10  0.4033  0.7007  0.8020  0.9076  0.9307  0.9658  0.9838  1.0000  0.8886  0.9986
 11  0.3337  0.6184  0.7468  0.8821  0.9142  0.9573  0.9801  0.9999  0.8673  0.9982
 12  0.2660  0.5296  0.6853  0.8534  0.8969  0.9483  0.9761  0.9999  0.8463  0.9976
 13  0.2026  0.4376  0.6180  0.8212  0.8784  0.9382  0.9717  0.9999  0.8218  0.9968
 14  0.1459  0.3464  0.5469  0.7860  0.8591  0.9274  0.9669  0.9998  0.7955  0.9959
 15  0.0979  0.2599  0.4745  0.7492  0.8400  0.9162  0.9622  0.9998  0.7715  0.9949
 16  0.0598  0.1816  0.4039  0.7122  0.8216  0.9051  0.9577  0.9997  0.7463  0.9937
 17  0.0331  0.1176  0.3386  0.6755  0.8039  0.8940  0.9534  0.9996  0.7248  0.9925
 18  0.0156  0.0675  0.2738  0.6321  0.7827  0.8804  0.9480  0.9995  0.7068  0.9909
 19  0.0066  0.0355  0.2154  0.5825  0.7569  0.8639  0.9410  0.9994  0.6928  0.9891
 20  0.0024  0.0169  0.1637  0.5260  0.7253  0.8434  0.9315  0.9993  0.6820  0.9868
 21  0.0008  0.0075  0.1202  0.4646  0.6882  0.8188  0.9193  0.9991  0.6750  0.9842
 22  0.0002  0.0032  0.0853  0.4009  0.6458  0.7901  0.9041  0.9989  0.6707  0.9812
 23  0.0001  0.0014  0.0585  0.3378  0.5989  0.7573  0.8859  0.9987  0.6673  0.9776
 24  0.0000  0.0006  0.0384  0.2765  0.5482  0.7199  0.8636  0.9984  0.6636  0.9716
 25  0.0000  0.0003  0.0243  0.2201  0.4946  0.6773  0.8366  0.9979  0.6596  0.9625
 26  0.0000  0.0001  0.0150  0.1714  0.4403  0.6316  0.8065  0.9971  0.6552  0.9528
 27  0.0000  0.0001  0.0092  0.1307  0.3873  0.5843  0.7744  0.9963  0.6506  0.9432
 28  0.0000  0.0000  0.0056  0.0975  0.3367  0.5348  0.7387  0.9950  0.6456  0.9303
 29  0.0000  0.0000  0.0034  0.0707  0.2880  0.4799  0.6946  0.9910  0.6398  0.9063
 30  0.0000  0.0000  0.0021  0.0503  0.2427  0.4227  0.6441  0.9830  0.6324  0.8754
 31  0.0000  0.0000  0.0013  0.0355  0.2030  0.3698  0.5948  0.9741  0.6245  0.8460
 32  0.0000  0.0000  0.0009  0.0245  0.1664  0.3159  0.5387  0.9591  0.6141  0.8086
 33  0.0000  0.0000  0.0006  0.0163  0.1307  0.2573  0.4675  0.9282  0.5979  0.7567
 34  0.0000  0.0000  0.0003  0.0105  0.0990  0.2019  0.3922  0.8849  0.5770  0.6996
 35  0.0000  0.0000  0.0002  0.0065  0.0721  0.1520  0.3171  0.8289  0.5514  0.6391
 36  0.0000  0.0000  0.0001  0.0039  0.0499  0.1089  0.2452  0.7597  0.5207  0.5757
 37  0.0000  0.0000  0.0001  0.0023  0.0336  0.0758  0.1846  0.6865  0.4880  0.5147
 38  0.0000  0.0000  0.0000  0.0013  0.0224  0.0521  0.1377  0.6162  0.4559  0.4595
 39  0.0000  0.0000  0.0000  0.0008  0.0148  0.0354  0.1014  0.5483  0.4242  0.4091
 40  0.0000  0.0000  0.0000  0.0005  0.0096  0.0235  0.0729  0.4803  0.3916  0.3620
 41  0.0000  0.0000  0.0000  0.0003  0.0064  0.0160  0.0531  0.4213  0.3621  0.3224
 42  0.0000  0.0000  0.0000  0.0002  0.0048  0.0121  0.0422  0.3827  0.3418  0.2965
 43  0.0000  0.0000  0.0000  0.0002  0.0042  0.0108  0.0384  0.3680  0.3338  0.2865
          1       2       3       4       5       6       7       8       9      10
  
 Level to space transmittances for channels
         11      12      13      14      15      16      17      18      19
  1  1.0000  0.9998  0.9998  1.0000  0.9989  0.9950  0.9800  1.0000  1.0000
  2  0.9999  0.9994  0.9998  0.9999  0.9976  0.9918  0.9675  1.0000  1.0000
  3  0.9998  0.9989  0.9997  0.9999  0.9955  0.9862  0.9439  1.0000  1.0000
  4  0.9995  0.9983  0.9995  0.9997  0.9927  0.9787  0.9051  1.0000  1.0000
  5  0.9991  0.9976  0.9993  0.9991  0.9892  0.9692  0.8453  1.0000  1.0000
  6  0.9985  0.9968  0.9987  0.9979  0.9845  0.9570  0.7592  1.0000  1.0000
  7  0.9977  0.9958  0.9977  0.9957  0.9783  0.9411  0.6448  1.0000  1.0000
  8  0.9966  0.9944  0.9963  0.9926  0.9703  0.9208  0.5076  0.9999  0.9999
  9  0.9954  0.9928  0.9944  0.9889  0.9603  0.8953  0.3615  0.9999  0.9999
 10  0.9940  0.9906  0.9921  0.9843  0.9480  0.8639  0.2275  0.9998  0.9998
 11  0.9922  0.9878  0.9892  0.9785  0.9332  0.8270  0.1254  0.9997  0.9998
 12  0.9901  0.9845  0.9857  0.9710  0.9154  0.7845  0.0633  0.9995  0.9997
 13  0.9875  0.9804  0.9812  0.9614  0.8943  0.7366  0.0322  0.9993  0.9996
 14  0.9843  0.9757  0.9756  0.9488  0.8693  0.6837  0.0182  0.9990  0.9994
 15  0.9805  0.9701  0.9684  0.9326  0.8401  0.6266  0.0119  0.9987  0.9992
 16  0.9763  0.9636  0.9598  0.9126  0.8074  0.5660  0.0089  0.9982  0.9990
 17  0.9718  0.9564  0.9501  0.8895  0.7720  0.5043  0.0073  0.9976  0.9988
 18  0.9664  0.9477  0.9380  0.8622  0.7302  0.4381  0.0061  0.9968  0.9985
 19  0.9601  0.9379  0.9238  0.8331  0.6841  0.3736  0.0052  0.9959  0.9981
 20  0.9529  0.9270  0.9071  0.8016  0.6331  0.3113  0.0044  0.9947  0.9978
 21  0.9447  0.9149  0.8877  0.7680  0.5783  0.2531  0.0037  0.9933  0.9973
 22  0.9354  0.9015  0.8658  0.7323  0.5209  0.2008  0.0032  0.9916  0.9968
 23  0.9201  0.8642  0.8415  0.6948  0.4623  0.1553  0.0027  0.9896  0.9963
 24  0.8552  0.6654  0.8147  0.6555  0.4039  0.1170  0.0023  0.9872  0.9954
 25  0.7650  0.4559  0.7856  0.6149  0.3473  0.0858  0.0020  0.9845  0.9939
 26  0.6856  0.3191  0.7546  0.5737  0.2939  0.0615  0.0017  0.9814  0.9921
 27  0.6220  0.2371  0.7224  0.5324  0.2451  0.0431  0.0015  0.9778  0.9903
 28  0.5365  0.1503  0.6888  0.4912  0.2015  0.0297  0.0012  0.9738  0.9877
 29  0.3883  0.0552  0.6530  0.4496  0.1633  0.0202  0.0011  0.9692  0.9821
 30  0.2485  0.0145  0.6153  0.4081  0.1306  0.0137  0.0009  0.9641  0.9736
 31  0.1594  0.0041  0.5779  0.3684  0.1031  0.0092  0.0008  0.9584  0.9647
 32  0.0883  0.0007  0.5393  0.3297  0.0804  0.0063  0.0007  0.9520  0.9529
 33  0.0377  0.0000  0.4988  0.2917  0.0620  0.0043  0.0006  0.9448  0.9358
 34  0.0143  0.0000  0.4587  0.2561  0.0473  0.0029  0.0005  0.9368  0.9166
 35  0.0049  0.0000  0.4197  0.2234  0.0360  0.0020  0.0004  0.9280  0.8960
 36  0.0015  0.0000  0.3822  0.1937  0.0273  0.0014  0.0003  0.9186  0.8742
 37  0.0004  0.0000  0.3474  0.1677  0.0208  0.0010  0.0003  0.9088  0.8525
 38  0.0001  0.0000  0.3161  0.1456  0.0159  0.0008  0.0003  0.8990  0.8320
 39  0.0000  0.0000  0.2883  0.1271  0.0124  0.0006  0.0002  0.8893  0.8127
 40  0.0000  0.0000  0.2642  0.1121  0.0100  0.0005  0.0002  0.8801  0.7941
 41  0.0000  0.0000  0.2447  0.1006  0.0083  0.0004  0.0002  0.8721  0.7778
 42  0.0000  0.0000  0.2317  0.0933  0.0073  0.0003  0.0002  0.8665  0.7664
 43  0.0000  0.0000  0.2266  0.0905  0.0069  0.0003  0.0002  0.8642  0.7619
         11      12      13      14      15      16      17      18      19
