  INPUT PROFILE
  219.100 249.820 255.990 257.540 251.720 243.480 235.020 229.330 226.620 223.050
  218.620 215.080 212.130 207.950 202.510 194.340 193.150 198.050 205.490 212.480
  219.840 226.740 233.390 240.020 246.660 253.050 258.760 263.400 267.210 271.020
  275.130 278.310 281.060 283.330 285.480 287.820 290.440 292.760 294.820 296.760
  299.190 300.970 301.640
   -5.810  -5.810  -5.810  -5.810  -5.810  -5.810  -5.810  -5.810  -5.810  -5.810
   -5.810  -5.810  -5.810  -5.810  -5.810  -5.810  -5.810  -5.810  -5.810  -5.810
   -5.810  -5.810  -4.070  -1.410  -0.980  -0.960  -1.140  -0.150   0.820   1.070
    0.980   1.640   1.940   2.080   2.280   2.410   2.470   2.540   2.640   2.810
    2.870   2.900   2.910
    1.000   1.257   1.780   2.886   3.287   3.244   3.158   2.985   2.816   2.053
    1.485   1.340   1.273   1.044   0.899   0.740   0.555   0.360   0.267   0.160
    0.082   0.049   0.045   0.045   0.045   0.045   0.045   0.041   0.038   0.036
    0.035   0.034   0.033   0.032   0.031   0.029   0.027   0.026   0.025   0.026
    0.029   0.032   0.032
   -0.100   0.000   0.000   0.000   0.000   0.000   0.000   0.000   0.000   0.000
    0.000   0.000   0.000   0.000   0.000   0.000   0.000   0.000   0.000   0.000
    0.000   0.000   0.000   0.000   0.000   0.000   0.000   0.000   0.000   0.000
    0.000   0.000   0.000   0.000   0.000   0.000   0.000   0.000   0.000   0.000
    0.000   0.000   0.000
  301.640   2.9101007.300   5.000   2.000
  301.640   3.000   5.000  15.000   0.100   0.300
  500.000   0.000
  
  NUMBER OF PROFILES PROCESSED= 1
  
 CHANNELS PROCESSED:
        1       2       3       4       5       6       7       8       9      10
       11      12
  
 INPUT SURFACE EMISSIVITIES SAT = 2
   -1.000  -1.000  -1.000  -1.000  -1.000  -1.000  -1.000  -1.000  -1.000  -1.000
   -1.000  -1.000
  
  -----------------
  Profile number  1 Instrument  17
  -----------------
  
 CALCULATED BRIGHTNESS TEMPERATURES: SAT = 2 ZENITH ANGLE= 45.00 AZIMUTH ANGLE=   0.00 SURFACE TYPE= 1
   150.57   94.53  155.78  100.39  189.38  145.98  232.45  207.36  209.27  168.73
   270.78  256.01
  
 CALCULATED RADIANCES: SAT = 2
     0.00    0.00    0.00    0.00    0.00    0.00    0.00    0.00    0.00    0.00
     0.02    0.02
  
 CALCULATED OVERCAST RADIANCES: SAT = 2
     0.00    0.00    0.00    0.00    0.00    0.00    0.00    0.00    0.00    0.00
     0.02    0.02
  
 CALCULATED SURFACE TO SPACE TRANSMITTANCE: SAT = 2
   0.9836  0.9836  0.9740  0.9740  0.8676  0.8676  0.6653  0.6653  0.8194  0.8194
   0.4778  0.4778
  
 CALCULATED SURFACE EMISSIVITIES SAT = 2
    0.479   0.283   0.488   0.290   0.510   0.309   0.523   0.317   0.556   0.342
    0.671   0.437
  
 Level to space transmittances for channels
          1       2       3       4       5       6       7       8       9      10
  1  1.0000  1.0000  1.0000  1.0000  1.0000  1.0000  1.0000  1.0000  1.0000  1.0000
  2  1.0000  1.0000  1.0000  1.0000  1.0000  1.0000  1.0000  1.0000  1.0000  1.0000
  3  1.0000  1.0000  1.0000  1.0000  1.0000  1.0000  1.0000  1.0000  1.0000  1.0000
  4  1.0000  1.0000  1.0000  1.0000  1.0000  1.0000  1.0000  1.0000  1.0000  1.0000
  5  1.0000  1.0000  1.0000  1.0000  1.0000  1.0000  1.0000  1.0000  1.0000  1.0000
  6  1.0000  1.0000  1.0000  1.0000  1.0000  1.0000  1.0000  1.0000  1.0000  1.0000
  7  1.0000  1.0000  1.0000  1.0000  1.0000  1.0000  1.0000  1.0000  1.0000  1.0000
  8  1.0000  1.0000  1.0000  1.0000  1.0000  1.0000  1.0000  1.0000  1.0000  1.0000
  9  1.0000  1.0000  1.0000  1.0000  1.0000  1.0000  1.0000  1.0000  1.0000  1.0000
 10  1.0000  1.0000  1.0000  1.0000  1.0000  1.0000  1.0000  1.0000  1.0000  1.0000
 11  1.0000  1.0000  1.0000  1.0000  1.0000  1.0000  1.0000  1.0000  0.9999  0.9999
 12  1.0000  1.0000  1.0000  1.0000  1.0000  1.0000  1.0000  1.0000  0.9999  0.9999
 13  1.0000  1.0000  1.0000  1.0000  0.9999  0.9999  0.9999  0.9999  0.9998  0.9998
 14  0.9999  0.9999  0.9999  0.9999  0.9999  0.9999  0.9999  0.9999  0.9997  0.9997
 15  0.9999  0.9999  0.9999  0.9999  0.9999  0.9999  0.9998  0.9998  0.9996  0.9996
 16  0.9999  0.9999  0.9998  0.9998  0.9998  0.9998  0.9997  0.9997  0.9993  0.9993
 17  0.9998  0.9998  0.9998  0.9998  0.9997  0.9997  0.9996  0.9996  0.9990  0.9990
 18  0.9997  0.9997  0.9997  0.9997  0.9996  0.9996  0.9994  0.9994  0.9986  0.9986
 19  0.9996  0.9996  0.9996  0.9996  0.9994  0.9994  0.9992  0.9992  0.9980  0.9980
 20  0.9995  0.9995  0.9994  0.9994  0.9992  0.9992  0.9989  0.9989  0.9973  0.9973
 21  0.9993  0.9993  0.9992  0.9992  0.9990  0.9990  0.9986  0.9986  0.9965  0.9965
 22  0.9991  0.9991  0.9990  0.9990  0.9987  0.9987  0.9983  0.9983  0.9956  0.9956
 23  0.9989  0.9989  0.9988  0.9988  0.9983  0.9983  0.9978  0.9978  0.9945  0.9945
 24  0.9986  0.9986  0.9985  0.9985  0.9979  0.9979  0.9970  0.9970  0.9933  0.9933
 25  0.9983  0.9983  0.9981  0.9981  0.9973  0.9973  0.9957  0.9957  0.9917  0.9917
 26  0.9980  0.9980  0.9978  0.9978  0.9967  0.9967  0.9940  0.9940  0.9900  0.9900
 27  0.9976  0.9976  0.9974  0.9974  0.9959  0.9959  0.9922  0.9922  0.9881  0.9881
 28  0.9972  0.9972  0.9969  0.9969  0.9949  0.9949  0.9896  0.9896  0.9859  0.9859
 29  0.9967  0.9967  0.9963  0.9963  0.9931  0.9931  0.9835  0.9835  0.9828  0.9828
 30  0.9961  0.9961  0.9956  0.9956  0.9903  0.9903  0.9735  0.9735  0.9785  0.9785
 31  0.9955  0.9955  0.9948  0.9948  0.9871  0.9871  0.9628  0.9628  0.9739  0.9739
 32  0.9948  0.9948  0.9938  0.9938  0.9827  0.9827  0.9480  0.9480  0.9679  0.9679
 33  0.9940  0.9940  0.9926  0.9926  0.9759  0.9759  0.9258  0.9258  0.9591  0.9591
 34  0.9930  0.9930  0.9910  0.9910  0.9671  0.9671  0.8991  0.8991  0.9481  0.9481
 35  0.9919  0.9919  0.9892  0.9892  0.9566  0.9566  0.8689  0.8689  0.9348  0.9348
 36  0.9907  0.9907  0.9872  0.9872  0.9441  0.9441  0.8356  0.8356  0.9190  0.9190
 37  0.9894  0.9894  0.9849  0.9849  0.9308  0.9308  0.8019  0.8019  0.9020  0.9020
 38  0.9881  0.9881  0.9826  0.9826  0.9172  0.9172  0.7696  0.7696  0.8845  0.8845
 39  0.9868  0.9868  0.9802  0.9802  0.9035  0.9035  0.7389  0.7389  0.8668  0.8668
 40  0.9856  0.9856  0.9779  0.9779  0.8897  0.8897  0.7096  0.7096  0.8487  0.8487
 41  0.9845  0.9845  0.9757  0.9757  0.8773  0.8773  0.6843  0.6843  0.8322  0.8322
 42  0.9837  0.9837  0.9741  0.9741  0.8684  0.8684  0.6670  0.6670  0.8206  0.8206
 43  0.9833  0.9833  0.9735  0.9735  0.8648  0.8648  0.6600  0.6600  0.8159  0.8159
          1       2       3       4       5       6       7       8       9      10
  
 Level to space transmittances for channels
         11      12
  1  1.0000  1.0000
  2  1.0000  1.0000
  3  1.0000  1.0000
  4  1.0000  1.0000
  5  1.0000  1.0000
  6  1.0000  1.0000
  7  1.0000  1.0000
  8  1.0000  1.0000
  9  1.0000  1.0000
 10  1.0000  1.0000
 11  0.9999  0.9999
 12  0.9999  0.9999
 13  0.9998  0.9998
 14  0.9997  0.9997
 15  0.9995  0.9995
 16  0.9992  0.9992
 17  0.9988  0.9988
 18  0.9982  0.9982
 19  0.9976  0.9976
 20  0.9968  0.9968
 21  0.9958  0.9958
 22  0.9948  0.9948
 23  0.9935  0.9935
 24  0.9919  0.9919
 25  0.9897  0.9897
 26  0.9872  0.9872
 27  0.9845  0.9845
 28  0.9810  0.9810
 29  0.9743  0.9743
 30  0.9632  0.9632
 31  0.9509  0.9509
 32  0.9333  0.9333
 33  0.9044  0.9044
 34  0.8669  0.8669
 35  0.8212  0.8212
 36  0.7675  0.7675
 37  0.7122  0.7122
 38  0.6579  0.6579
 39  0.6056  0.6056
 40  0.5544  0.5544
 41  0.5103  0.5103
 42  0.4806  0.4806
 43  0.4690  0.4690
         11      12
