  INPUT PROFILE
  219.100 249.820 255.990 257.540 251.720 243.480 235.020 229.330 226.620 223.050
  218.620 215.080 212.130 207.950 202.510 194.340 193.150 198.050 205.490 212.480
  219.840 226.740 233.390 240.020 246.660 253.050 258.760 263.400 267.210 271.020
  275.130 278.310 281.060 283.330 285.480 287.820 290.440 292.760 294.820 296.760
  299.190 300.970 301.640
   -5.810  -5.810  -5.810  -5.810  -5.810  -5.810  -5.810  -5.810  -5.810  -5.810
   -5.810  -5.810  -5.810  -5.810  -5.810  -5.810  -5.810  -5.810  -5.810  -5.810
   -5.810  -5.810  -4.070  -1.410  -0.980  -0.960  -1.140  -0.150   0.820   1.070
    0.980   1.640   1.940   2.080   2.280   2.410   2.470   2.540   2.640   2.810
    2.870   2.900   2.910
    1.000   1.257   1.780   2.886   3.287   3.244   3.158   2.985   2.816   2.053
    1.485   1.340   1.273   1.044   0.899   0.740   0.555   0.360   0.267   0.160
    0.082   0.049   0.045   0.045   0.045   0.045   0.045   0.041   0.038   0.036
    0.035   0.034   0.033   0.032   0.031   0.029   0.027   0.026   0.025   0.026
    0.029   0.032   0.032
   -0.100   0.000   0.000   0.000   0.000   0.000   0.000   0.000   0.000   0.000
    0.000   0.000   0.000   0.000   0.000   0.000   0.000   0.000   0.000   0.000
    0.000   0.000   0.000   0.000   0.000   0.000   0.000   0.000   0.000   0.000
    0.000   0.000   0.000   0.000   0.000   0.000   0.000   0.000   0.000   0.000
    0.000   0.000   0.000
  301.640   2.9101007.300   5.000   2.000
  301.640   3.000   5.000  15.000   0.100   0.300
  500.000   0.000
  
  NUMBER OF PROFILES PROCESSED= 1
  
 CHANNELS PROCESSED:
        1       2       3       4       5       6       7       8       9      10
       11      12      13      14      15      16      17      18      19
  
 INPUT SURFACE EMISSIVITIES SAT = 12
    0.000   0.000   0.000   0.000   0.000   0.000   0.000   0.000   0.000   0.000
    0.000   0.000   0.000   0.000   0.000   0.000   0.000   0.000   0.000
  
  -----------------
  Profile number  1 Instrument  0
  -----------------
  
 CALCULATED BRIGHTNESS TEMPERATURES: SAT =12 ZENITH ANGLE=  0.00 AZIMUTH ANGLE=   0.00 SURFACE TYPE= 1
   228.00  217.43  217.38  232.52  248.60  261.32  276.14  294.24  278.40  288.69
   261.99  249.22  283.90  271.53  256.18  231.81  236.51  299.27  298.54
  
 CALCULATED RADIANCES: SAT = 12
    53.25   42.06   41.07   53.96   70.40   84.47  102.74  108.03   64.44   49.46
    16.69    7.54    1.90    1.05    0.46    0.11    0.09    1.07    0.63
  
 CALCULATED OVERCAST RADIANCES: SAT = 12
    53.25   42.06   41.05   53.11   65.94   75.16   84.06   71.24   41.54   30.48
    15.43    7.48    0.81    0.55    0.32    0.10    0.09    0.27    0.15
  
 CALCULATED SURFACE TO SPACE TRANSMITTANCE: SAT = 12
   0.0000  0.0000  0.0000  0.0002  0.0040  0.0118  0.0534  0.3808  0.3446  0.2861
   0.0000  0.0000  0.2592  0.0892  0.0161  0.0001  0.0000  0.8652  0.7729
  
 CALCULATED SURFACE EMISSIVITIES SAT = 12
    0.957   0.959   0.961   0.963   0.965   0.969   0.973   0.992   0.988   0.983
    0.981   0.979   0.979   0.979   0.979   0.979   0.978   0.977   0.975
  
 Level to space transmittances for channels
          1       2       3       4       5       6       7       8       9      10
  1  0.9731  0.9949  0.9965  0.9983  0.9985  0.9993  0.9999  1.0000  0.9995  1.0000
  2  0.9555  0.9912  0.9937  0.9967  0.9967  0.9985  0.9996  1.0000  0.9984  1.0000
  3  0.9210  0.9840  0.9882  0.9940  0.9943  0.9974  0.9990  1.0000  0.9957  1.0000
  4  0.8660  0.9718  0.9789  0.9901  0.9910  0.9958  0.9982  1.0000  0.9894  1.0000
  5  0.7958  0.9526  0.9648  0.9842  0.9862  0.9934  0.9971  1.0000  0.9793  0.9999
  6  0.7245  0.9249  0.9448  0.9758  0.9793  0.9900  0.9957  1.0000  0.9677  0.9998
  7  0.6587  0.8869  0.9182  0.9647  0.9703  0.9854  0.9939  1.0000  0.9543  0.9996
  8  0.5928  0.8378  0.8842  0.9508  0.9591  0.9798  0.9919  1.0000  0.9377  0.9993
  9  0.5228  0.7767  0.8419  0.9333  0.9455  0.9729  0.9893  1.0000  0.9172  0.9989
 10  0.4495  0.7042  0.7913  0.9122  0.9297  0.9649  0.9864  1.0000  0.8951  0.9985
 11  0.3748  0.6226  0.7334  0.8880  0.9129  0.9562  0.9833  0.9999  0.8751  0.9980
 12  0.3011  0.5344  0.6689  0.8609  0.8951  0.9470  0.9800  0.9999  0.8555  0.9973
 13  0.2311  0.4429  0.5987  0.8306  0.8761  0.9367  0.9763  0.9999  0.8326  0.9965
 14  0.1676  0.3519  0.5249  0.7974  0.8563  0.9257  0.9724  0.9998  0.8081  0.9955
 15  0.1131  0.2653  0.4501  0.7626  0.8365  0.9143  0.9686  0.9998  0.7858  0.9944
 16  0.0694  0.1867  0.3777  0.7278  0.8174  0.9030  0.9649  0.9997  0.7624  0.9931
 17  0.0385  0.1222  0.3113  0.6931  0.7990  0.8917  0.9614  0.9996  0.7425  0.9916
 18  0.0182  0.0714  0.2470  0.6519  0.7769  0.8780  0.9571  0.9995  0.7257  0.9899
 19  0.0077  0.0385  0.1905  0.6041  0.7500  0.8613  0.9514  0.9994  0.7126  0.9878
 20  0.0028  0.0191  0.1420  0.5491  0.7170  0.8406  0.9437  0.9992  0.7024  0.9853
 21  0.0009  0.0090  0.1023  0.4884  0.6782  0.8159  0.9338  0.9991  0.6957  0.9824
 22  0.0002  0.0042  0.0713  0.4247  0.6341  0.7871  0.9213  0.9989  0.6916  0.9790
 23  0.0001  0.0020  0.0481  0.3605  0.5854  0.7543  0.9061  0.9987  0.6885  0.9751
 24  0.0000  0.0010  0.0311  0.2973  0.5328  0.7168  0.8873  0.9984  0.6849  0.9686
 25  0.0000  0.0005  0.0195  0.2383  0.4776  0.6744  0.8641  0.9978  0.6810  0.9590
 26  0.0000  0.0003  0.0119  0.1866  0.4221  0.6288  0.8380  0.9971  0.6768  0.9487
 27  0.0000  0.0001  0.0072  0.1430  0.3684  0.5817  0.8098  0.9963  0.6724  0.9385
 28  0.0000  0.0001  0.0043  0.1071  0.3175  0.5323  0.7780  0.9950  0.6676  0.9251
 29  0.0000  0.0000  0.0026  0.0779  0.2692  0.4778  0.7377  0.9911  0.6617  0.9003
 30  0.0000  0.0000  0.0016  0.0554  0.2248  0.4210  0.6905  0.9832  0.6542  0.8685
 31  0.0000  0.0000  0.0010  0.0392  0.1864  0.3684  0.6440  0.9744  0.6460  0.8382
 32  0.0000  0.0000  0.0006  0.0272  0.1515  0.3148  0.5899  0.9595  0.6351  0.8000
 33  0.0000  0.0000  0.0004  0.0180  0.1180  0.2567  0.5188  0.9288  0.6179  0.7472
 34  0.0000  0.0000  0.0002  0.0117  0.0887  0.2016  0.4420  0.8858  0.5957  0.6895
 35  0.0000  0.0000  0.0001  0.0073  0.0640  0.1519  0.3633  0.8300  0.5685  0.6285
 36  0.0000  0.0000  0.0001  0.0044  0.0440  0.1090  0.2860  0.7609  0.5358  0.5650
 37  0.0000  0.0000  0.0000  0.0026  0.0294  0.0759  0.2194  0.6879  0.5011  0.5042
 38  0.0000  0.0000  0.0000  0.0015  0.0194  0.0522  0.1668  0.6178  0.4671  0.4493
 39  0.0000  0.0000  0.0000  0.0009  0.0128  0.0355  0.1252  0.5500  0.4336  0.3995
 40  0.0000  0.0000  0.0000  0.0005  0.0082  0.0236  0.0916  0.4819  0.3992  0.3529
 41  0.0000  0.0000  0.0000  0.0003  0.0055  0.0161  0.0679  0.4229  0.3680  0.3140
 42  0.0000  0.0000  0.0000  0.0002  0.0041  0.0122  0.0546  0.3844  0.3467  0.2885
 43  0.0000  0.0000  0.0000  0.0002  0.0036  0.0109  0.0500  0.3696  0.3382  0.2787
          1       2       3       4       5       6       7       8       9      10
  
 Level to space transmittances for channels
         11      12      13      14      15      16      17      18      19
  1  1.0000  0.9998  0.9998  1.0000  0.9993  0.9955  0.9814  1.0000  1.0000
  2  0.9999  0.9995  0.9997  0.9999  0.9984  0.9935  0.9694  1.0000  1.0000
  3  0.9998  0.9990  0.9996  0.9999  0.9967  0.9899  0.9462  1.0000  1.0000
  4  0.9995  0.9984  0.9995  0.9997  0.9945  0.9848  0.9076  1.0000  1.0000
  5  0.9991  0.9977  0.9993  0.9991  0.9916  0.9777  0.8481  1.0000  1.0000
  6  0.9985  0.9970  0.9988  0.9978  0.9876  0.9679  0.7621  1.0000  1.0000
  7  0.9978  0.9960  0.9979  0.9956  0.9822  0.9545  0.6478  1.0000  1.0000
  8  0.9968  0.9948  0.9967  0.9926  0.9752  0.9371  0.5105  0.9999  0.9999
  9  0.9956  0.9932  0.9950  0.9888  0.9667  0.9149  0.3644  0.9999  0.9999
 10  0.9943  0.9911  0.9929  0.9841  0.9562  0.8873  0.2301  0.9998  0.9998
 11  0.9926  0.9885  0.9904  0.9782  0.9435  0.8541  0.1280  0.9997  0.9997
 12  0.9906  0.9853  0.9873  0.9706  0.9281  0.8152  0.0656  0.9995  0.9997
 13  0.9881  0.9815  0.9834  0.9608  0.9094  0.7704  0.0341  0.9994  0.9995
 14  0.9850  0.9770  0.9785  0.9481  0.8870  0.7199  0.0193  0.9991  0.9994
 15  0.9815  0.9717  0.9722  0.9316  0.8602  0.6642  0.0123  0.9987  0.9992
 16  0.9775  0.9656  0.9648  0.9112  0.8295  0.6037  0.0088  0.9983  0.9989
 17  0.9732  0.9587  0.9563  0.8877  0.7957  0.5411  0.0068  0.9977  0.9987
 18  0.9681  0.9504  0.9457  0.8600  0.7559  0.4732  0.0053  0.9969  0.9983
 19  0.9622  0.9412  0.9331  0.8304  0.7125  0.4067  0.0042  0.9960  0.9980
 20  0.9553  0.9307  0.9181  0.7986  0.6649  0.3416  0.0033  0.9949  0.9976
 21  0.9476  0.9192  0.9006  0.7646  0.6137  0.2799  0.0026  0.9935  0.9971
 22  0.9388  0.9065  0.8807  0.7286  0.5600  0.2236  0.0020  0.9918  0.9965
 23  0.9240  0.8709  0.8583  0.6908  0.5047  0.1738  0.0016  0.9898  0.9959
 24  0.8590  0.6798  0.8335  0.6512  0.4491  0.1313  0.0012  0.9874  0.9950
 25  0.7678  0.4732  0.8065  0.6104  0.3945  0.0966  0.0009  0.9847  0.9935
 26  0.6875  0.3351  0.7775  0.5690  0.3424  0.0692  0.0007  0.9816  0.9917
 27  0.6231  0.2508  0.7472  0.5275  0.2937  0.0483  0.0005  0.9780  0.9899
 28  0.5366  0.1605  0.7155  0.4861  0.2494  0.0330  0.0004  0.9739  0.9873
 29  0.3865  0.0596  0.6814  0.4444  0.2095  0.0221  0.0003  0.9693  0.9819
 30  0.2458  0.0159  0.6453  0.4029  0.1742  0.0145  0.0002  0.9641  0.9737
 31  0.1570  0.0045  0.6093  0.3632  0.1436  0.0094  0.0002  0.9583  0.9652
 32  0.0867  0.0008  0.5719  0.3245  0.1174  0.0060  0.0001  0.9519  0.9538
 33  0.0370  0.0001  0.5322  0.2866  0.0949  0.0038  0.0001  0.9446  0.9374
 34  0.0142  0.0000  0.4925  0.2512  0.0763  0.0024  0.0001  0.9365  0.9190
 35  0.0049  0.0000  0.4537  0.2186  0.0611  0.0015  0.0000  0.9278  0.8992
 36  0.0015  0.0000  0.4160  0.1892  0.0488  0.0010  0.0000  0.9182  0.8782
 37  0.0005  0.0000  0.3806  0.1634  0.0390  0.0006  0.0000  0.9083  0.8572
 38  0.0002  0.0000  0.3485  0.1415  0.0314  0.0004  0.0000  0.8984  0.8374
 39  0.0001  0.0000  0.3199  0.1232  0.0256  0.0003  0.0000  0.8887  0.8187
 40  0.0000  0.0000  0.2948  0.1084  0.0212  0.0002  0.0000  0.8795  0.8008
 41  0.0000  0.0000  0.2743  0.0971  0.0182  0.0002  0.0000  0.8714  0.7849
 42  0.0000  0.0000  0.2605  0.0899  0.0163  0.0001  0.0000  0.8657  0.7739
 43  0.0000  0.0000  0.2552  0.0871  0.0156  0.0001  0.0000  0.8634  0.7695
         11      12      13      14      15      16      17      18      19
