  INPUT PROFILE
  219.100 249.820 255.990 257.540 251.720 243.480 235.020 229.330 226.620 223.050
  218.620 215.080 212.130 207.950 202.510 194.340 193.150 198.050 205.490 212.480
  219.840 226.740 233.390 240.020 246.660 253.050 258.760 263.400 267.210 271.020
  275.130 278.310 281.060 283.330 285.480 287.820 290.440 292.760 294.820 296.760
  299.190 300.970 301.640
   -5.810  -5.810  -5.810  -5.810  -5.810  -5.810  -5.810  -5.810  -5.810  -5.810
   -5.810  -5.810  -5.810  -5.810  -5.810  -5.810  -5.810  -5.810  -5.810  -5.810
   -5.810  -5.810  -4.070  -1.410  -0.980  -0.960  -1.140  -0.150   0.820   1.070
    0.980   1.640   1.940   2.080   2.280   2.410   2.470   2.540   2.640   2.810
    2.870   2.900   2.910
    1.000   1.257   1.780   2.886   3.287   3.244   3.158   2.985   2.816   2.053
    1.485   1.340   1.273   1.044   0.899   0.740   0.555   0.360   0.267   0.160
    0.082   0.049   0.045   0.045   0.045   0.045   0.045   0.041   0.038   0.036
    0.035   0.034   0.033   0.032   0.031   0.029   0.027   0.026   0.025   0.026
    0.029   0.032   0.032
   -0.100   0.000   0.000   0.000   0.000   0.000   0.000   0.000   0.000   0.000
    0.000   0.000   0.000   0.000   0.000   0.000   0.000   0.000   0.000   0.000
    0.000   0.000   0.000   0.000   0.000   0.000   0.000   0.000   0.000   0.000
    0.000   0.000   0.000   0.000   0.000   0.000   0.000   0.000   0.000   0.000
    0.000   0.000   0.000
  301.640   2.9101007.300   5.000   2.000
  301.640   3.000   5.000  15.000   0.100   0.300
  500.000   0.000
  
  NUMBER OF PROFILES PROCESSED= 1
  
 CHANNELS PROCESSED:
        1       2       3       4       5       6       7       8       9      10
       11      12      13      14      15      16      17      18      19
  
 INPUT SURFACE EMISSIVITIES SAT = 15
    0.000   0.000   0.000   0.000   0.000   0.000   0.000   0.000   0.000   0.000
    0.000   0.000   0.000   0.000   0.000   0.000   0.000   0.000   0.000
  
  -----------------
  Profile number  1 Instrument  0
  -----------------
  
 CALCULATED BRIGHTNESS TEMPERATURES: SAT =15 ZENITH ANGLE=  0.00 AZIMUTH ANGLE=   0.00 SURFACE TYPE= 1
   228.72  217.88  217.02  230.38  248.17  261.43  271.73  294.18  276.60  287.68
   262.26  241.65  284.34  271.78  259.28  253.31  293.88  299.30  298.52
  
 CALCULATED RADIANCES: SAT = 15
    53.80   42.60   40.72   51.91   69.94   84.68   96.84  108.18   61.31  113.47
    17.11    4.73    1.94    1.07    0.55    0.40    1.21    1.05    0.62
  
 CALCULATED OVERCAST RADIANCES: SAT = 15
    53.80   42.60   40.71   51.35   65.62   75.35   81.54   71.44   39.62   84.74
    15.71    4.73    0.82    0.56    0.35    0.29    0.37    0.27    0.15
  
 CALCULATED SURFACE TO SPACE TRANSMITTANCE: SAT = 15
   0.0000  0.0000  0.0000  0.0001  0.0038  0.0117  0.0331  0.3782  0.3355  0.1424
   0.0000  0.0000  0.2710  0.0916  0.0270  0.0103  0.5735  0.8675  0.7702
  
 CALCULATED SURFACE EMISSIVITIES SAT = 15
    0.957   0.958   0.961   0.963   0.965   0.969   0.972   0.992   0.988   0.983
    0.981   0.978   0.979   0.979   0.979   0.979   0.978   0.977   0.975
  
 Level to space transmittances for channels
          1       2       3       4       5       6       7       8       9      10
  1  0.9765  0.9944  0.9967  0.9982  0.9984  0.9993  0.9998  1.0000  0.9994  1.0000
  2  0.9601  0.9904  0.9940  0.9966  0.9967  0.9986  0.9994  1.0000  0.9982  1.0000
  3  0.9295  0.9826  0.9887  0.9939  0.9943  0.9975  0.9986  1.0000  0.9952  1.0000
  4  0.8807  0.9695  0.9798  0.9898  0.9910  0.9961  0.9976  1.0000  0.9884  0.9999
  5  0.8143  0.9491  0.9661  0.9836  0.9861  0.9938  0.9961  1.0000  0.9775  0.9998
  6  0.7388  0.9198  0.9467  0.9749  0.9792  0.9906  0.9943  1.0000  0.9649  0.9997
  7  0.6609  0.8801  0.9207  0.9635  0.9701  0.9862  0.9920  1.0000  0.9502  0.9996
  8  0.5799  0.8287  0.8875  0.9489  0.9589  0.9808  0.9892  1.0000  0.9321  0.9994
  9  0.4957  0.7650  0.8460  0.9307  0.9452  0.9742  0.9858  1.0000  0.9096  0.9993
 10  0.4117  0.6899  0.7962  0.9086  0.9293  0.9664  0.9818  1.0000  0.8853  0.9991
 11  0.3319  0.6056  0.7391  0.8833  0.9123  0.9580  0.9775  0.9999  0.8633  0.9989
 12  0.2590  0.5151  0.6755  0.8547  0.8945  0.9490  0.9730  0.9999  0.8416  0.9988
 13  0.1943  0.4222  0.6059  0.8227  0.8753  0.9389  0.9679  0.9999  0.8164  0.9986
 14  0.1388  0.3308  0.5324  0.7876  0.8552  0.9280  0.9624  0.9998  0.7892  0.9984
 15  0.0931  0.2449  0.4578  0.7508  0.8353  0.9167  0.9569  0.9998  0.7644  0.9982
 16  0.0574  0.1678  0.3852  0.7137  0.8160  0.9053  0.9516  0.9997  0.7384  0.9981
 17  0.0322  0.1056  0.3184  0.6767  0.7974  0.8940  0.9464  0.9996  0.7161  0.9980
 18  0.0152  0.0580  0.2530  0.6326  0.7750  0.8801  0.9401  0.9995  0.6975  0.9978
 19  0.0063  0.0286  0.1949  0.5817  0.7477  0.8633  0.9317  0.9994  0.6830  0.9976
 20  0.0021  0.0123  0.1444  0.5232  0.7142  0.8426  0.9206  0.9992  0.6718  0.9973
 21  0.0006  0.0046  0.1027  0.4594  0.6748  0.8180  0.9065  0.9990  0.6647  0.9970
 22  0.0001  0.0015  0.0700  0.3931  0.6299  0.7893  0.8891  0.9989  0.6602  0.9964
 23  0.0000  0.0005  0.0455  0.3274  0.5805  0.7567  0.8684  0.9987  0.6568  0.9956
 24  0.0000  0.0001  0.0279  0.2639  0.5271  0.7195  0.8433  0.9983  0.6530  0.9932
 25  0.0000  0.0000  0.0161  0.2060  0.4713  0.6774  0.8133  0.9978  0.6489  0.9882
 26  0.0000  0.0000  0.0088  0.1567  0.4153  0.6320  0.7801  0.9970  0.6444  0.9825
 27  0.0000  0.0000  0.0046  0.1162  0.3613  0.5849  0.7450  0.9962  0.6397  0.9765
 28  0.0000  0.0000  0.0022  0.0839  0.3104  0.5354  0.7064  0.9949  0.6346  0.9674
 29  0.0000  0.0000  0.0010  0.0584  0.2622  0.4806  0.6596  0.9909  0.6287  0.9463
 30  0.0000  0.0000  0.0004  0.0396  0.2183  0.4232  0.6069  0.9829  0.6214  0.9152
 31  0.0000  0.0000  0.0002  0.0265  0.1805  0.3701  0.5559  0.9740  0.6135  0.8850
 32  0.0000  0.0000  0.0001  0.0173  0.1463  0.3160  0.4988  0.9588  0.6032  0.8429
 33  0.0000  0.0000  0.0000  0.0107  0.1137  0.2574  0.4281  0.9278  0.5872  0.7751
 34  0.0000  0.0000  0.0000  0.0065  0.0853  0.2020  0.3549  0.8844  0.5668  0.6947
 35  0.0000  0.0000  0.0000  0.0038  0.0615  0.1521  0.2831  0.8283  0.5419  0.6048
 36  0.0000  0.0000  0.0000  0.0021  0.0422  0.1091  0.2157  0.7589  0.5118  0.5083
 37  0.0000  0.0000  0.0000  0.0012  0.0282  0.0758  0.1598  0.6856  0.4800  0.4180
 38  0.0000  0.0000  0.0000  0.0006  0.0187  0.0521  0.1172  0.6152  0.4487  0.3408
 39  0.0000  0.0000  0.0000  0.0003  0.0123  0.0353  0.0849  0.5474  0.4178  0.2746
 40  0.0000  0.0000  0.0000  0.0002  0.0079  0.0234  0.0600  0.4793  0.3860  0.2162
 41  0.0000  0.0000  0.0000  0.0001  0.0052  0.0159  0.0431  0.4203  0.3571  0.1714
 42  0.0000  0.0000  0.0000  0.0001  0.0039  0.0120  0.0339  0.3818  0.3374  0.1447
 43  0.0000  0.0000  0.0000  0.0001  0.0035  0.0107  0.0307  0.3671  0.3295  0.1351
          1       2       3       4       5       6       7       8       9      10
  
 Level to space transmittances for channels
         11      12      13      14      15      16      17      18      19
  1  1.0000  0.9996  0.9998  1.0000  0.9996  0.9989  1.0000  1.0000  1.0000
  2  0.9999  0.9991  0.9997  0.9999  0.9990  0.9977  1.0000  1.0000  1.0000
  3  0.9998  0.9983  0.9996  0.9999  0.9977  0.9957  1.0000  1.0000  1.0000
  4  0.9995  0.9973  0.9995  0.9997  0.9958  0.9930  1.0000  1.0000  1.0000
  5  0.9991  0.9963  0.9992  0.9991  0.9933  0.9897  1.0000  1.0000  1.0000
  6  0.9985  0.9950  0.9988  0.9979  0.9898  0.9852  0.9999  1.0000  1.0000
  7  0.9976  0.9934  0.9979  0.9957  0.9849  0.9791  0.9999  1.0000  1.0000
  8  0.9965  0.9913  0.9967  0.9926  0.9788  0.9713  0.9999  0.9999  0.9999
  9  0.9952  0.9885  0.9950  0.9889  0.9714  0.9616  0.9998  0.9999  0.9999
 10  0.9936  0.9849  0.9930  0.9843  0.9622  0.9497  0.9996  0.9998  0.9998
 11  0.9917  0.9804  0.9905  0.9785  0.9511  0.9352  0.9993  0.9997  0.9998
 12  0.9894  0.9748  0.9875  0.9710  0.9375  0.9179  0.9989  0.9995  0.9997
 13  0.9865  0.9681  0.9837  0.9613  0.9208  0.8973  0.9983  0.9993  0.9996
 14  0.9830  0.9602  0.9788  0.9488  0.9003  0.8728  0.9974  0.9990  0.9994
 15  0.9789  0.9509  0.9727  0.9326  0.8755  0.8441  0.9960  0.9987  0.9993
 16  0.9742  0.9402  0.9654  0.9124  0.8465  0.8119  0.9940  0.9982  0.9991
 17  0.9691  0.9280  0.9570  0.8893  0.8143  0.7770  0.9913  0.9976  0.9988
 18  0.9631  0.9134  0.9465  0.8620  0.7763  0.7357  0.9875  0.9968  0.9986
 19  0.9561  0.8972  0.9342  0.8328  0.7351  0.6903  0.9829  0.9959  0.9982
 20  0.9482  0.8792  0.9195  0.8013  0.6901  0.6402  0.9773  0.9947  0.9979
 21  0.9392  0.8596  0.9025  0.7676  0.6416  0.5863  0.9705  0.9933  0.9975
 22  0.9292  0.8382  0.8830  0.7319  0.5906  0.5300  0.9625  0.9916  0.9970
 23  0.9134  0.7804  0.8613  0.6943  0.5377  0.4723  0.9532  0.9896  0.9965
 24  0.8514  0.5061  0.8372  0.6549  0.4842  0.4148  0.9424  0.9873  0.9956
 25  0.7658  0.2571  0.8109  0.6143  0.4311  0.3590  0.9301  0.9845  0.9942
 26  0.6900  0.1276  0.7827  0.5730  0.3799  0.3062  0.9162  0.9815  0.9925
 27  0.6288  0.0684  0.7532  0.5317  0.3316  0.2577  0.9009  0.9779  0.9908
 28  0.5467  0.0247  0.7222  0.4904  0.2870  0.2141  0.8840  0.9740  0.9883
 29  0.4034  0.0020  0.6889  0.4487  0.2462  0.1758  0.8655  0.9695  0.9828
 30  0.2650  0.0000  0.6536  0.4073  0.2096  0.1426  0.8454  0.9644  0.9746
 31  0.1740  0.0000  0.6183  0.3675  0.1772  0.1145  0.8241  0.9587  0.9660
 32  0.0994  0.0000  0.5816  0.3287  0.1487  0.0911  0.8014  0.9525  0.9544
 33  0.0443  0.0000  0.5426  0.2907  0.1238  0.0717  0.7773  0.9453  0.9377
 34  0.0177  0.0000  0.5035  0.2551  0.1026  0.0561  0.7521  0.9375  0.9189
 35  0.0063  0.0000  0.4651  0.2223  0.0847  0.0438  0.7261  0.9289  0.8988
 36  0.0020  0.0000  0.4277  0.1927  0.0697  0.0341  0.6996  0.9195  0.8774
 37  0.0006  0.0000  0.3925  0.1667  0.0575  0.0266  0.6733  0.9098  0.8560
 38  0.0002  0.0000  0.3606  0.1445  0.0478  0.0210  0.6482  0.9001  0.8359
 39  0.0001  0.0000  0.3320  0.1261  0.0401  0.0168  0.6247  0.8906  0.8169
 40  0.0000  0.0000  0.3067  0.1110  0.0342  0.0138  0.6037  0.8815  0.7986
 41  0.0000  0.0000  0.2861  0.0996  0.0299  0.0117  0.5864  0.8736  0.7825
 42  0.0000  0.0000  0.2723  0.0923  0.0273  0.0104  0.5746  0.8680  0.7713
 43  0.0000  0.0000  0.2669  0.0894  0.0263  0.0099  0.5700  0.8657  0.7669
         11      12      13      14      15      16      17      18      19
