  INPUT PROFILE
  219.100 249.820 255.990 257.540 251.720 243.480 235.020 229.330 226.620 223.050
  218.620 215.080 212.130 207.950 202.510 194.340 193.150 198.050 205.490 212.480
  219.840 226.740 233.390 240.020 246.660 253.050 258.760 263.400 267.210 271.020
  275.130 278.310 281.060 283.330 285.480 287.820 290.440 292.760 294.820 296.760
  299.190 300.970 301.640
   -5.810  -5.810  -5.810  -5.810  -5.810  -5.810  -5.810  -5.810  -5.810  -5.810
   -5.810  -5.810  -5.810  -5.810  -5.810  -5.810  -5.810  -5.810  -5.810  -5.810
   -5.810  -5.810  -4.070  -1.410  -0.980  -0.960  -1.140  -0.150   0.820   1.070
    0.980   1.640   1.940   2.080   2.280   2.410   2.470   2.540   2.640   2.810
    2.870   2.900   2.910
    1.000   1.257   1.780   2.886   3.287   3.244   3.158   2.985   2.816   2.053
    1.485   1.340   1.273   1.044   0.899   0.740   0.555   0.360   0.267   0.160
    0.082   0.049   0.045   0.045   0.045   0.045   0.045   0.041   0.038   0.036
    0.035   0.034   0.033   0.032   0.031   0.029   0.027   0.026   0.025   0.026
    0.029   0.032   0.032
   -0.100   0.000   0.000   0.000   0.000   0.000   0.000   0.000   0.000   0.000
    0.000   0.000   0.000   0.000   0.000   0.000   0.000   0.000   0.000   0.000
    0.000   0.000   0.000   0.000   0.000   0.000   0.000   0.000   0.000   0.000
    0.000   0.000   0.000   0.000   0.000   0.000   0.000   0.000   0.000   0.000
    0.000   0.000   0.000
  301.640   2.9101007.300   5.000   2.000
  301.640   3.000   5.000  15.000   0.100   0.300
  500.000   0.000
  
  NUMBER OF PROFILES PROCESSED= 1
  
 CHANNELS PROCESSED:
        1       2       3       4       5       6       7       8       9      10
       11      12      13      14      15      16      17      18      19
  
 INPUT SURFACE EMISSIVITIES SAT = 10
    0.000   0.000   0.000   0.000   0.000   0.000   0.000   0.000   0.000   0.000
    0.000   0.000   0.000   0.000   0.000   0.000   0.000   0.000   0.000
  
  -----------------
  Profile number  1 Instrument  0
  -----------------
  
 CALCULATED BRIGHTNESS TEMPERATURES: SAT =10 ZENITH ANGLE=  0.00 AZIMUTH ANGLE=   0.00 SURFACE TYPE= 1
   229.09  217.42  217.84  232.82  249.11  261.50  274.60  294.23  277.66  288.08
   262.13  248.75  283.15  273.02  255.13  231.23  237.08  299.28  298.47
  
 CALCULATED RADIANCES: SAT = 10
    54.34   42.05   41.35   54.25   70.97   84.62  100.62  108.04   63.21   48.54
    16.96    7.34    1.84    1.14    0.44    0.10    0.09    1.07    0.61
  
 CALCULATED OVERCAST RADIANCES: SAT = 10
    54.34   42.05   41.32   53.41   66.31   75.27   83.13   71.26   40.81   30.11
    15.61    7.29    0.80    0.58    0.31    0.10    0.09    0.27    0.15
  
 CALCULATED SURFACE TO SPACE TRANSMITTANCE: SAT = 10
   0.0000  0.0000  0.0000  0.0002  0.0043  0.0118  0.0466  0.3804  0.3398  0.2738
   0.0000  0.0000  0.2446  0.1055  0.0132  0.0001  0.0002  0.8653  0.7663
  
 CALCULATED SURFACE EMISSIVITIES SAT = 10
    0.957   0.959   0.961   0.963   0.966   0.969   0.973   0.992   0.988   0.983
    0.981   0.979   0.979   0.979   0.979   0.979   0.978   0.977   0.975
  
 Level to space transmittances for channels
          1       2       3       4       5       6       7       8       9      10
  1  0.9710  0.9949  0.9967  0.9983  0.9984  0.9993  0.9999  1.0000  0.9995  1.0000
  2  0.9520  0.9913  0.9941  0.9967  0.9967  0.9986  0.9995  1.0000  0.9983  1.0000
  3  0.9147  0.9841  0.9888  0.9942  0.9942  0.9975  0.9989  1.0000  0.9955  1.0000
  4  0.8552  0.9719  0.9801  0.9903  0.9909  0.9960  0.9979  1.0000  0.9890  0.9999
  5  0.7793  0.9528  0.9668  0.9845  0.9860  0.9936  0.9967  1.0000  0.9785  0.9999
  6  0.7028  0.9250  0.9480  0.9764  0.9791  0.9903  0.9951  1.0000  0.9666  0.9997
  7  0.6333  0.8871  0.9231  0.9656  0.9701  0.9859  0.9931  1.0000  0.9526  0.9995
  8  0.5651  0.8378  0.8912  0.9521  0.9588  0.9805  0.9908  1.0000  0.9354  0.9992
  9  0.4940  0.7767  0.8515  0.9351  0.9451  0.9738  0.9879  1.0000  0.9141  0.9988
 10  0.4208  0.7042  0.8039  0.9146  0.9293  0.9661  0.9845  1.0000  0.8911  0.9983
 11  0.3478  0.6224  0.7493  0.8911  0.9125  0.9577  0.9810  0.9999  0.8703  0.9977
 12  0.2771  0.5342  0.6885  0.8648  0.8948  0.9487  0.9772  0.9999  0.8499  0.9969
 13  0.2110  0.4425  0.6219  0.8353  0.8760  0.9386  0.9731  0.9999  0.8260  0.9960
 14  0.1520  0.3513  0.5514  0.8030  0.8563  0.9278  0.9686  0.9998  0.8005  0.9949
 15  0.1020  0.2646  0.4798  0.7692  0.8368  0.9167  0.9642  0.9998  0.7771  0.9935
 16  0.0622  0.1859  0.4098  0.7352  0.8181  0.9056  0.9599  0.9997  0.7527  0.9919
 17  0.0344  0.1214  0.3450  0.7013  0.8000  0.8945  0.9558  0.9996  0.7318  0.9903
 18  0.0163  0.0705  0.2806  0.6608  0.7784  0.8810  0.9508  0.9995  0.7143  0.9882
 19  0.0069  0.0377  0.2222  0.6136  0.7520  0.8644  0.9442  0.9994  0.7007  0.9857
 20  0.0025  0.0185  0.1701  0.5586  0.7198  0.8439  0.9353  0.9992  0.6901  0.9828
 21  0.0008  0.0086  0.1259  0.4977  0.6818  0.8194  0.9239  0.9991  0.6832  0.9795
 22  0.0003  0.0039  0.0901  0.4333  0.6385  0.7907  0.9097  0.9989  0.6790  0.9756
 23  0.0001  0.0018  0.0623  0.3682  0.5907  0.7580  0.8925  0.9987  0.6757  0.9711
 24  0.0000  0.0009  0.0413  0.3037  0.5390  0.7205  0.8714  0.9984  0.6720  0.9637
 25  0.0000  0.0004  0.0264  0.2434  0.4845  0.6780  0.8457  0.9978  0.6680  0.9531
 26  0.0000  0.0002  0.0165  0.1903  0.4297  0.6323  0.8170  0.9971  0.6637  0.9419
 27  0.0000  0.0001  0.0102  0.1455  0.3764  0.5850  0.7863  0.9963  0.6592  0.9307
 28  0.0000  0.0001  0.0062  0.1086  0.3257  0.5355  0.7522  0.9950  0.6542  0.9162
 29  0.0000  0.0000  0.0038  0.0785  0.2773  0.4805  0.7096  0.9910  0.6484  0.8900
 30  0.0000  0.0000  0.0024  0.0555  0.2326  0.4233  0.6606  0.9831  0.6409  0.8567
 31  0.0000  0.0000  0.0015  0.0389  0.1936  0.3703  0.6126  0.9743  0.6328  0.8251
 32  0.0000  0.0000  0.0010  0.0267  0.1580  0.3163  0.5576  0.9593  0.6221  0.7855
 33  0.0000  0.0000  0.0006  0.0175  0.1236  0.2577  0.4868  0.9286  0.6053  0.7313
 34  0.0000  0.0000  0.0004  0.0112  0.0933  0.2022  0.4115  0.8855  0.5837  0.6726
 35  0.0000  0.0000  0.0002  0.0069  0.0675  0.1522  0.3354  0.8297  0.5573  0.6112
 36  0.0000  0.0000  0.0001  0.0041  0.0466  0.1091  0.2616  0.7606  0.5256  0.5477
 37  0.0000  0.0000  0.0001  0.0024  0.0312  0.0758  0.1989  0.6875  0.4919  0.4873
 38  0.0000  0.0000  0.0000  0.0014  0.0207  0.0521  0.1498  0.6174  0.4589  0.4331
 39  0.0000  0.0000  0.0000  0.0008  0.0137  0.0354  0.1114  0.5495  0.4263  0.3842
 40  0.0000  0.0000  0.0000  0.0005  0.0088  0.0236  0.0808  0.4815  0.3929  0.3387
 41  0.0000  0.0000  0.0000  0.0003  0.0059  0.0160  0.0594  0.4225  0.3626  0.3008
 42  0.0000  0.0000  0.0000  0.0002  0.0044  0.0121  0.0476  0.3839  0.3418  0.2761
 43  0.0000  0.0000  0.0000  0.0002  0.0039  0.0108  0.0434  0.3692  0.3336  0.2666
          1       2       3       4       5       6       7       8       9      10
  
 Level to space transmittances for channels
         11      12      13      14      15      16      17      18      19
  1  1.0000  0.9998  0.9998  1.0000  0.9992  0.9955  0.9793  1.0000  1.0000
  2  0.9999  0.9994  0.9997  0.9999  0.9982  0.9934  0.9663  1.0000  1.0000
  3  0.9998  0.9989  0.9996  0.9998  0.9965  0.9898  0.9418  1.0000  1.0000
  4  0.9995  0.9983  0.9995  0.9997  0.9941  0.9846  0.9018  1.0000  1.0000
  5  0.9991  0.9976  0.9993  0.9992  0.9911  0.9774  0.8404  1.0000  1.0000
  6  0.9985  0.9969  0.9987  0.9980  0.9869  0.9675  0.7518  1.0000  1.0000
  7  0.9976  0.9959  0.9978  0.9959  0.9813  0.9541  0.6344  1.0000  1.0000
  8  0.9965  0.9946  0.9964  0.9931  0.9741  0.9365  0.4936  0.9999  0.9999
  9  0.9953  0.9929  0.9946  0.9895  0.9652  0.9141  0.3447  0.9999  0.9999
 10  0.9938  0.9908  0.9924  0.9852  0.9543  0.8863  0.2095  0.9998  0.9998
 11  0.9919  0.9881  0.9897  0.9796  0.9410  0.8528  0.1086  0.9997  0.9998
 12  0.9897  0.9848  0.9863  0.9726  0.9251  0.8135  0.0495  0.9996  0.9997
 13  0.9869  0.9808  0.9821  0.9635  0.9058  0.7683  0.0222  0.9994  0.9996
 14  0.9836  0.9761  0.9768  0.9516  0.8827  0.7174  0.0113  0.9991  0.9994
 15  0.9796  0.9706  0.9700  0.9364  0.8554  0.6613  0.0072  0.9988  0.9992
 16  0.9751  0.9642  0.9619  0.9175  0.8241  0.6003  0.0056  0.9984  0.9990
 17  0.9703  0.9570  0.9527  0.8958  0.7898  0.5371  0.0049  0.9978  0.9988
 18  0.9646  0.9484  0.9413  0.8700  0.7494  0.4687  0.0043  0.9971  0.9985
 19  0.9579  0.9387  0.9278  0.8423  0.7052  0.4018  0.0039  0.9962  0.9982
 20  0.9503  0.9279  0.9118  0.8123  0.6568  0.3364  0.0034  0.9950  0.9978
 21  0.9417  0.9159  0.8933  0.7799  0.6047  0.2746  0.0030  0.9937  0.9974
 22  0.9321  0.9027  0.8723  0.7455  0.5501  0.2183  0.0027  0.9920  0.9969
 23  0.9165  0.8658  0.8489  0.7091  0.4940  0.1686  0.0023  0.9901  0.9963
 24  0.8531  0.6694  0.8230  0.6708  0.4377  0.1264  0.0020  0.9877  0.9954
 25  0.7653  0.4594  0.7949  0.6312  0.3826  0.0921  0.0018  0.9850  0.9940
 26  0.6879  0.3212  0.7649  0.5908  0.3301  0.0651  0.0015  0.9819  0.9922
 27  0.6256  0.2379  0.7335  0.5503  0.2814  0.0448  0.0013  0.9783  0.9904
 28  0.5421  0.1500  0.7009  0.5097  0.2371  0.0301  0.0012  0.9743  0.9878
 29  0.3969  0.0539  0.6659  0.4685  0.1975  0.0197  0.0010  0.9697  0.9823
 30  0.2583  0.0138  0.6290  0.4274  0.1627  0.0126  0.0009  0.9644  0.9738
 31  0.1682  0.0038  0.5923  0.3878  0.1328  0.0079  0.0008  0.9587  0.9650
 32  0.0950  0.0007  0.5544  0.3491  0.1073  0.0049  0.0007  0.9522  0.9532
 33  0.0418  0.0000  0.5143  0.3109  0.0859  0.0030  0.0006  0.9449  0.9362
 34  0.0165  0.0000  0.4745  0.2749  0.0682  0.0018  0.0005  0.9369  0.9170
 35  0.0059  0.0000  0.4357  0.2416  0.0539  0.0011  0.0005  0.9280  0.8965
 36  0.0019  0.0000  0.3982  0.2112  0.0425  0.0007  0.0004  0.9185  0.8748
 37  0.0006  0.0000  0.3632  0.1844  0.0336  0.0005  0.0004  0.9086  0.8531
 38  0.0002  0.0000  0.3317  0.1614  0.0267  0.0003  0.0003  0.8986  0.8327
 39  0.0001  0.0000  0.3036  0.1421  0.0215  0.0002  0.0003  0.8889  0.8135
 40  0.0000  0.0000  0.2791  0.1262  0.0177  0.0002  0.0003  0.8796  0.7950
 41  0.0000  0.0000  0.2592  0.1141  0.0150  0.0001  0.0002  0.8716  0.7787
 42  0.0000  0.0000  0.2459  0.1062  0.0134  0.0001  0.0002  0.8659  0.7674
 43  0.0000  0.0000  0.2407  0.1032  0.0128  0.0001  0.0002  0.8635  0.7629
         11      12      13      14      15      16      17      18      19
