  INPUT PROFILE
  219.100 249.820 255.990 257.540 251.720 243.480 235.020 229.330 226.620 223.050
  218.620 215.080 212.130 207.950 202.510 194.340 193.150 198.050 205.490 212.480
  219.840 226.740 233.390 240.020 246.660 253.050 258.760 263.400 267.210 271.020
  275.130 278.310 281.060 283.330 285.480 287.820 290.440 292.760 294.820 296.760
  299.190 300.970 301.640
   -5.810  -5.810  -5.810  -5.810  -5.810  -5.810  -5.810  -5.810  -5.810  -5.810
   -5.810  -5.810  -5.810  -5.810  -5.810  -5.810  -5.810  -5.810  -5.810  -5.810
   -5.810  -5.810  -4.070  -1.410  -0.980  -0.960  -1.140  -0.150   0.820   1.070
    0.980   1.640   1.940   2.080   2.280   2.410   2.470   2.540   2.640   2.810
    2.870   2.900   2.910
    1.000   1.257   1.780   2.886   3.287   3.244   3.158   2.985   2.816   2.053
    1.485   1.340   1.273   1.044   0.899   0.740   0.555   0.360   0.267   0.160
    0.082   0.049   0.045   0.045   0.045   0.045   0.045   0.041   0.038   0.036
    0.035   0.034   0.033   0.032   0.031   0.029   0.027   0.026   0.025   0.026
    0.029   0.032   0.032
   -0.100   0.000   0.000   0.000   0.000   0.000   0.000   0.000   0.000   0.000
    0.000   0.000   0.000   0.000   0.000   0.000   0.000   0.000   0.000   0.000
    0.000   0.000   0.000   0.000   0.000   0.000   0.000   0.000   0.000   0.000
    0.000   0.000   0.000   0.000   0.000   0.000   0.000   0.000   0.000   0.000
    0.000   0.000   0.000
  301.640   2.9101007.300   5.000   2.000
  301.640   3.000   5.000  15.000   0.100   0.300
  500.000   0.000
  
  NUMBER OF PROFILES PROCESSED= 1
  
 CHANNELS PROCESSED:
        1       2       3       4       5       6       7       8       9      10
       11      12      13      14      15      16      17      18      19
  
 INPUT SURFACE EMISSIVITIES SAT = 11
    0.000   0.000   0.000   0.000   0.000   0.000   0.000   0.000   0.000   0.000
    0.000   0.000   0.000   0.000   0.000   0.000   0.000   0.000   0.000
  
  -----------------
  Profile number  1 Instrument  0
  -----------------
  
 CALCULATED BRIGHTNESS TEMPERATURES: SAT =11 ZENITH ANGLE=  0.00 AZIMUTH ANGLE=   0.00 SURFACE TYPE= 1
   228.34  217.84  217.19  231.10  249.32  261.14  273.52  294.29  277.16  287.57
   262.38  248.87  283.11  271.86  255.52  231.19  293.58  299.30  298.39
  
 CALCULATED RADIANCES: SAT = 11
    53.44   42.54   40.92   52.62   71.21   84.25   99.19  107.81   62.12  114.08
    17.23    7.46    1.84    1.07    0.45    0.10    1.21    1.08    0.60
  
 CALCULATED OVERCAST RADIANCES: SAT = 11
    53.44   42.54   40.88   51.93   66.46   75.06   82.60   70.98   40.08   85.28
    15.76    7.41    0.79    0.56    0.31    0.10    0.37    0.27    0.15
  
 CALCULATED SURFACE TO SPACE TRANSMITTANCE: SAT = 11
   0.0000  0.0000  0.0000  0.0001  0.0044  0.0113  0.0401  0.3843  0.3391  0.1425
   0.0000  0.0000  0.2450  0.0922  0.0152  0.0000  0.5614  0.8663  0.7599
  
 CALCULATED SURFACE EMISSIVITIES SAT = 11
    0.957   0.959   0.961   0.963   0.966   0.969   0.972   0.992   0.988   0.982
    0.981   0.979   0.979   0.979   0.979   0.979   0.978   0.977   0.975
  
 Level to space transmittances for channels
          1       2       3       4       5       6       7       8       9      10
  1  0.9742  0.9945  0.9965  0.9982  0.9985  0.9993  0.9998  1.0000  0.9994  1.0000
  2  0.9569  0.9905  0.9937  0.9966  0.9967  0.9985  0.9995  1.0000  0.9983  1.0000
  3  0.9236  0.9828  0.9880  0.9939  0.9943  0.9973  0.9988  1.0000  0.9954  0.9999
  4  0.8702  0.9698  0.9784  0.9898  0.9910  0.9957  0.9978  1.0000  0.9887  0.9999
  5  0.8002  0.9497  0.9639  0.9836  0.9862  0.9933  0.9965  1.0000  0.9780  0.9997
  6  0.7262  0.9205  0.9435  0.9749  0.9794  0.9898  0.9948  1.0000  0.9658  0.9995
  7  0.6554  0.8810  0.9163  0.9633  0.9704  0.9852  0.9927  1.0000  0.9515  0.9993
  8  0.5841  0.8299  0.8817  0.9487  0.9592  0.9795  0.9902  1.0000  0.9338  0.9991
  9  0.5097  0.7667  0.8387  0.9304  0.9456  0.9725  0.9872  1.0000  0.9119  0.9989
 10  0.4337  0.6921  0.7872  0.9082  0.9300  0.9644  0.9837  1.0000  0.8882  0.9986
 11  0.3587  0.6084  0.7282  0.8828  0.9133  0.9557  0.9799  0.9999  0.8669  0.9983
 12  0.2870  0.5187  0.6626  0.8542  0.8957  0.9463  0.9759  0.9999  0.8458  0.9980
 13  0.2204  0.4262  0.5909  0.8222  0.8770  0.9359  0.9714  0.9999  0.8212  0.9977
 14  0.1610  0.3350  0.5153  0.7871  0.8574  0.9248  0.9666  0.9998  0.7948  0.9974
 15  0.1102  0.2491  0.4387  0.7504  0.8381  0.9134  0.9618  0.9997  0.7707  0.9972
 16  0.0691  0.1720  0.3644  0.7134  0.8194  0.9019  0.9573  0.9997  0.7455  0.9969
 17  0.0395  0.1095  0.2965  0.6766  0.8014  0.8906  0.9529  0.9996  0.7239  0.9967
 18  0.0193  0.0613  0.2313  0.6331  0.7797  0.8768  0.9475  0.9994  0.7058  0.9965
 19  0.0084  0.0312  0.1750  0.5831  0.7535  0.8600  0.9403  0.9993  0.6918  0.9962
 20  0.0031  0.0143  0.1278  0.5262  0.7214  0.8392  0.9307  0.9991  0.6810  0.9957
 21  0.0010  0.0061  0.0903  0.4642  0.6836  0.8144  0.9184  0.9990  0.6740  0.9951
 22  0.0003  0.0026  0.0622  0.4000  0.6405  0.7855  0.9030  0.9988  0.6696  0.9942
 23  0.0001  0.0011  0.0419  0.3362  0.5930  0.7526  0.8846  0.9985  0.6663  0.9929
 24  0.0000  0.0006  0.0276  0.2743  0.5416  0.7150  0.8621  0.9982  0.6625  0.9900
 25  0.0000  0.0003  0.0181  0.2174  0.4875  0.6724  0.8347  0.9976  0.6585  0.9845
 26  0.0000  0.0002  0.0119  0.1682  0.4328  0.6267  0.8043  0.9969  0.6541  0.9782
 27  0.0000  0.0001  0.0081  0.1273  0.3798  0.5794  0.7718  0.9961  0.6495  0.9715
 28  0.0000  0.0001  0.0056  0.0939  0.3292  0.5299  0.7359  0.9948  0.6445  0.9618
 29  0.0000  0.0001  0.0039  0.0671  0.2808  0.4751  0.6914  0.9910  0.6386  0.9412
 30  0.0000  0.0000  0.0028  0.0468  0.2360  0.4179  0.6404  0.9832  0.6312  0.9113
 31  0.0000  0.0000  0.0020  0.0322  0.1969  0.3651  0.5909  0.9746  0.6232  0.8822
 32  0.0000  0.0000  0.0015  0.0216  0.1611  0.3114  0.5345  0.9599  0.6128  0.8417
 33  0.0000  0.0000  0.0010  0.0139  0.1263  0.2533  0.4631  0.9297  0.5965  0.7762
 34  0.0000  0.0000  0.0007  0.0086  0.0955  0.1984  0.3879  0.8871  0.5757  0.6975
 35  0.0000  0.0000  0.0004  0.0051  0.0694  0.1490  0.3131  0.8319  0.5501  0.6085
 36  0.0000  0.0000  0.0003  0.0029  0.0480  0.1066  0.2416  0.7634  0.5194  0.5120
 37  0.0000  0.0000  0.0002  0.0016  0.0322  0.0739  0.1815  0.6908  0.4868  0.4212
 38  0.0000  0.0000  0.0001  0.0009  0.0215  0.0507  0.1350  0.6210  0.4548  0.3434
 39  0.0000  0.0000  0.0001  0.0005  0.0142  0.0343  0.0992  0.5534  0.4231  0.2764
 40  0.0000  0.0000  0.0000  0.0003  0.0092  0.0227  0.0711  0.4855  0.3906  0.2173
 41  0.0000  0.0000  0.0000  0.0002  0.0061  0.0154  0.0517  0.4265  0.3612  0.1719
 42  0.0000  0.0000  0.0000  0.0001  0.0046  0.0116  0.0411  0.3879  0.3410  0.1449
 43  0.0000  0.0000  0.0000  0.0001  0.0040  0.0104  0.0374  0.3731  0.3330  0.1351
          1       2       3       4       5       6       7       8       9      10
  
 Level to space transmittances for channels
         11      12      13      14      15      16      17      18      19
  1  1.0000  0.9998  0.9998  1.0000  0.9993  0.9955  1.0000  1.0000  1.0000
  2  0.9999  0.9994  0.9997  0.9999  0.9983  0.9935  1.0000  1.0000  1.0000
  3  0.9998  0.9989  0.9997  0.9999  0.9965  0.9899  1.0000  1.0000  1.0000
  4  0.9995  0.9983  0.9995  0.9997  0.9942  0.9849  0.9999  1.0000  1.0000
  5  0.9991  0.9976  0.9993  0.9991  0.9911  0.9778  0.9999  1.0000  1.0000
  6  0.9984  0.9968  0.9987  0.9979  0.9870  0.9680  0.9999  1.0000  1.0000
  7  0.9975  0.9958  0.9978  0.9957  0.9814  0.9546  0.9998  1.0000  1.0000
  8  0.9963  0.9945  0.9964  0.9927  0.9743  0.9372  0.9997  0.9999  0.9999
  9  0.9950  0.9929  0.9946  0.9890  0.9656  0.9149  0.9995  0.9999  0.9999
 10  0.9933  0.9908  0.9923  0.9844  0.9548  0.8873  0.9993  0.9998  0.9998
 11  0.9913  0.9880  0.9896  0.9786  0.9418  0.8540  0.9989  0.9997  0.9998
 12  0.9889  0.9847  0.9862  0.9711  0.9260  0.8148  0.9984  0.9996  0.9997
 13  0.9858  0.9807  0.9819  0.9615  0.9071  0.7698  0.9977  0.9994  0.9996
 14  0.9821  0.9760  0.9764  0.9490  0.8842  0.7191  0.9966  0.9992  0.9994
 15  0.9777  0.9705  0.9696  0.9329  0.8572  0.6630  0.9951  0.9989  0.9992
 16  0.9727  0.9642  0.9613  0.9129  0.8263  0.6021  0.9929  0.9984  0.9990
 17  0.9673  0.9570  0.9519  0.8898  0.7924  0.5390  0.9899  0.9979  0.9988
 18  0.9608  0.9485  0.9402  0.8627  0.7525  0.4706  0.9858  0.9972  0.9985
 19  0.9534  0.9389  0.9265  0.8336  0.7087  0.4036  0.9809  0.9963  0.9982
 20  0.9451  0.9282  0.9104  0.8022  0.6605  0.3381  0.9749  0.9953  0.9978
 21  0.9357  0.9163  0.8917  0.7686  0.6086  0.2761  0.9677  0.9939  0.9974
 22  0.9253  0.9032  0.8706  0.7330  0.5540  0.2195  0.9594  0.9923  0.9969
 23  0.9094  0.8665  0.8470  0.6955  0.4980  0.1695  0.9496  0.9904  0.9964
 24  0.8485  0.6717  0.8211  0.6562  0.4416  0.1270  0.9383  0.9881  0.9955
 25  0.7644  0.4648  0.7929  0.6156  0.3864  0.0924  0.9256  0.9854  0.9940
 26  0.6899  0.3267  0.7629  0.5744  0.3337  0.0653  0.9112  0.9824  0.9922
 27  0.6296  0.2426  0.7316  0.5331  0.2848  0.0448  0.8954  0.9788  0.9903
 28  0.5491  0.1526  0.6989  0.4918  0.2403  0.0299  0.8780  0.9748  0.9877
 29  0.4090  0.0538  0.6641  0.4502  0.2006  0.0195  0.8590  0.9702  0.9819
 30  0.2729  0.0132  0.6274  0.4086  0.1658  0.0124  0.8384  0.9650  0.9732
 31  0.1824  0.0035  0.5908  0.3688  0.1358  0.0077  0.8164  0.9593  0.9640
 32  0.1068  0.0006  0.5531  0.3300  0.1103  0.0047  0.7932  0.9529  0.9518
 33  0.0493  0.0000  0.5133  0.2919  0.0888  0.0028  0.7686  0.9456  0.9342
 34  0.0203  0.0000  0.4738  0.2562  0.0711  0.0017  0.7428  0.9376  0.9145
 35  0.0075  0.0000  0.4353  0.2233  0.0567  0.0010  0.7163  0.9288  0.8933
 36  0.0025  0.0000  0.3980  0.1936  0.0452  0.0006  0.6893  0.9193  0.8710
 37  0.0008  0.0000  0.3632  0.1675  0.0361  0.0003  0.6626  0.9094  0.8487
 38  0.0003  0.0000  0.3318  0.1453  0.0291  0.0002  0.6370  0.8995  0.8278
 39  0.0001  0.0000  0.3039  0.1268  0.0238  0.0001  0.6132  0.8898  0.8081
 40  0.0000  0.0000  0.2794  0.1117  0.0198  0.0001  0.5919  0.8806  0.7892
 41  0.0000  0.0000  0.2595  0.1002  0.0170  0.0001  0.5744  0.8725  0.7726
 42  0.0000  0.0000  0.2463  0.0928  0.0153  0.0000  0.5625  0.8668  0.7610
 43  0.0000  0.0000  0.2411  0.0900  0.0147  0.0000  0.5578  0.8645  0.7564
         11      12      13      14      15      16      17      18      19
